Time(s)	Displ(microns)	Friction	Effective_Normal_stress(MPa)
11745.633000	9983.126742	0.608176	19.964652
11745.634000	9983.410592	0.608355	19.960845
11745.635000	9983.393488	0.608673	19.960868
11745.636000	9983.070890	0.608664	19.957977
11745.637000	9983.480753	0.608694	19.959540
11745.638000	9983.455255	0.608815	19.951370
11745.639000	9983.681310	0.609511	19.946366
11745.640000	9983.620056	0.609363	19.936495
11745.641000	9983.680740	0.609062	19.946496
11745.642000	9984.135820	0.609671	19.944353
11745.643000	9983.926655	0.610085	19.944223
11745.644000	9984.531080	0.609313	19.950471
11745.645000	9983.944126	0.608772	19.963225
11745.646000	9985.029709	0.609586	19.950630
11745.647000	9984.993719	0.609575	19.948007
11745.648000	9984.333390	0.609314	19.956230
11745.649000	9984.771854	0.608663	19.960502
11745.650000	9984.715744	0.608467	19.957595
11745.651000	9984.504492	0.608387	19.961326
11745.652000	9985.214352	0.608871	19.957901
11745.653000	9985.042843	0.608672	19.961226
11745.654000	9984.721587	0.608253	19.972105
11745.655000	9985.986427	0.608568	19.967314
11745.656000	9985.996957	0.608373	19.971449
11745.657000	9985.435895	0.608299	19.974927
11745.658000	9985.465728	0.607875	19.972570
11745.659000	9985.669263	0.608022	19.971418
11745.660000	9986.192647	0.608870	19.948380
11745.661000	9986.130586	0.608434	19.965178
11745.662000	9986.489394	0.608518	19.960059
11745.663000	9986.730923	0.608660	19.952148
11745.664000	9986.586338	0.608515	19.954719
11745.665000	9986.449660	0.608773	19.952545
11745.666000	9986.835489	0.609186	19.945054
11745.667000	9986.957074	0.608367	19.948319
11745.668000	9987.286472	0.608037	19.951020
11745.669000	9986.365863	0.607716	19.946954
11745.670000	9986.958175	0.607361	19.953011
11745.671000	9987.413288	0.607505	19.947739
11745.672000	9987.231288	0.607857	19.949562
11745.673000	9986.664807	0.607630	19.957252
11745.674000	9987.011240	0.607745	19.955734
11745.675000	9987.813237	0.607178	19.957489
11745.676000	9987.455420	0.607654	19.947724
11745.677000	9987.937484	0.607551	19.952072
11745.678000	9987.836934	0.607249	19.956795
11745.679000	9987.326176	0.606494	19.968611
11745.680000	9987.352719	0.606898	19.967947
11745.681000	9987.613321	0.607877	19.943925
11745.682000	9988.493587	0.607668	19.950180
11745.683000	9988.576841	0.607375	19.961165
11745.684000	9988.669213	0.607608	19.959281
11745.685000	9988.941291	0.607506	19.964560
11745.686000	9988.376397	0.607773	19.960708
11745.687000	9988.487908	0.607836	19.963828
11745.688000	9988.821592	0.607995	19.958755
11745.689000	9989.016025	0.607756	19.956001
11745.690000	9989.376071	0.606998	19.962027
11745.691000	9989.417470	0.606994	19.969412
11745.692000	9989.589708	0.607147	19.961761
11745.693000	9989.516572	0.607325	19.958961
11745.694000	9989.507369	0.607379	19.957283
11745.695000	9989.720912	0.607737	19.957672
11745.696000	9989.357754	0.607317	19.964583
11745.697000	9989.732523	0.606851	19.963141
11745.698000	9989.928190	0.606869	19.958251
11745.699000	9990.156628	0.606573	19.962310
11745.700000	9990.011222	0.606787	19.954475
11745.701000	9989.510429	0.606488	19.955253
11745.702000	9989.776385	0.606807	19.952233
11745.703000	9990.199202	0.607374	19.940652
11745.704000	9989.779326	0.607638	19.942857
11745.705000	9990.229526	0.607151	19.955772
11745.706000	9990.435192	0.607415	19.942278
11745.707000	9990.669706	0.607606	19.944703
11745.708000	9990.991543	0.607583	19.947526
11745.709000	9990.622135	0.607247	19.954300
11745.710000	9990.973695	0.607522	19.948953
11745.711000	9991.072950	0.607347	19.956558
11745.712000	9991.426037	0.608218	19.953705
11745.713000	9990.625418	0.608800	19.949792
11745.714000	9992.115225	0.608414	19.959075
11745.715000	9992.235550	0.608316	19.971555
11745.716000	9991.083095	0.608232	19.961150
11745.717000	9991.761367	0.608604	19.955749
11745.718000	9991.789356	0.608020	19.963034
11745.719000	9991.660582	0.607977	19.962348
11745.720000	9991.755685	0.607437	19.968138
11745.721000	9991.107353	0.607169	19.973630
11745.722000	9991.986895	0.607453	19.962531
11745.723000	9991.791992	0.607598	19.966170
11745.724000	9993.024428	0.607844	19.964789
11745.725000	9992.673575	0.607966	19.954788
11745.726000	9992.273295	0.607746	19.960151
11745.727000	9992.404032	0.608108	19.951859
11745.728000	9992.320857	0.608544	19.954003
11745.729000	9992.708902	0.608283	19.956100
11745.730000	9992.762593	0.607867	19.964461
11745.731000	9992.779363	0.608376	19.945398
11745.732000	9993.149401	0.608039	19.956421
11745.733000	9993.794702	0.608328	19.956710
11745.734000	9993.219799	0.608257	19.968901
11745.735000	9993.403908	0.608854	19.958183
11745.736000	9993.286801	0.609126	19.955742
11745.737000	9993.356758	0.608936	19.957069
11745.738000	9993.966404	0.608955	19.956604
11745.739000	9993.826397	0.608955	19.948701
11745.740000	9993.973119	0.608378	19.955368
11745.741000	9993.592961	0.608007	19.961158
11745.742000	9994.225092	0.608858	19.951539
11745.743000	9994.624390	0.608866	19.958045
11745.744000	9994.283238	0.608498	19.956802
11745.745000	9994.286300	0.608561	19.952744
11745.746000	9994.440367	0.608318	19.965643
11745.747000	9995.157877	0.608567	19.960670
11745.748000	9995.121389	0.608456	19.956642
11745.749000	9995.555078	0.608161	19.958549
11745.750000	9995.328259	0.607703	19.964072
11745.751000	9995.352195	0.607624	19.966177
11745.752000	9995.579306	0.608209	19.957336
11745.753000	9995.530193	0.608346	19.954384
11745.754000	9995.770710	0.608110	19.958900
11745.755000	9995.613315	0.607702	19.956131
11745.756000	9995.731411	0.607562	19.955734
11745.757000	9995.523512	0.607467	19.958282
11745.758000	9995.711241	0.606891	19.958000
11745.759000	9995.953103	0.606415	19.961310
11745.760000	9995.335727	0.606281	19.956451
11745.761000	9995.668079	0.606239	19.955177
11745.762000	9996.446820	0.606464	19.954353
11745.763000	9996.274484	0.606635	19.955856
11745.764000	9996.213444	0.606879	19.959274
11745.765000	9996.251636	0.607086	19.953857
11745.766000	9996.879562	0.607146	19.954902
11745.767000	9996.248644	0.607544	19.947770
11745.768000	9996.705463	0.607774	19.950203
11745.769000	9996.030161	0.607564	19.944871
11745.770000	9996.847131	0.607135	19.953987
11745.771000	9996.661912	0.607429	19.954369
11745.772000	9996.828366	0.607867	19.951668
11745.773000	9996.529180	0.607880	19.955818
11745.774000	9997.162932	0.607538	19.957725
11745.775000	9997.299345	0.608252	19.957908
11745.776000	9997.124404	0.608979	19.955818
11745.777000	9997.787546	0.608550	19.958907
11745.778000	9997.808568	0.608117	19.969656
11745.779000	9997.894392	0.608259	19.967047
11745.780000	9997.197576	0.608419	19.968161
11745.781000	9997.451726	0.608645	19.959686
11745.782000	9998.790754	0.608557	19.964545
11745.783000	9998.671068	0.608942	19.963134
11745.784000	9998.780567	0.609274	19.957954
11745.785000	9998.863223	0.609131	19.960349
11745.786000	9998.887216	0.608696	19.967184
11745.787000	9998.672499	0.609154	19.969831
11745.788000	9998.681502	0.609146	19.960693
11745.789000	9999.768685	0.608674	19.954788
11745.790000	9999.339502	0.608050	19.968909
11745.791000	9998.815173	0.607838	19.962134
11745.792000	9999.553536	0.608423	19.953186
11745.793000	9999.494386	0.608104	19.951828
11745.794000	9999.644984	0.607954	19.946549
11745.795000	9999.600001	0.607909	19.952477
11745.796000	9999.567540	0.607786	19.950791
11745.797000	9999.888990	0.607332	19.945123
11745.798000	9999.356128	0.607414	19.941873
11745.799000	9999.623537	0.607375	19.947411
11745.800000	10000.229792	0.606952	19.949273
11745.801000	9999.872991	0.606549	19.945520
11745.802000	10000.085100	0.607043	19.951569
11745.803000	10000.585281	0.606843	19.962043
11745.804000	9999.618409	0.607022	19.957573
11745.805000	9999.729708	0.606990	19.953011
11745.806000	10000.105788	0.607087	19.967680
11745.807000	10000.710234	0.607307	19.964178
11745.808000	10000.048126	0.607019	19.966773
11745.809000	10001.061816	0.606791	19.966963
11745.810000	10001.242589	0.606764	19.968954
11745.811000	10000.677381	0.607887	19.953980
11745.812000	10001.214948	0.608326	19.963607
11745.813000	10001.331300	0.608453	19.970144
11745.814000	10001.336399	0.608480	19.952851
11745.815000	10001.907968	0.608691	19.959052
11745.816000	10001.245409	0.609297	19.950349
11745.817000	10001.343460	0.608788	19.954140
11745.818000	10001.600214	0.608515	19.956756
11745.819000	10000.974149	0.608436	19.957893
11745.820000	10001.958963	0.608066	19.960731
11745.821000	10002.206984	0.607954	19.959411
11745.822000	10001.904182	0.608291	19.957679
11745.823000	10001.715257	0.608775	19.954170
11745.824000	10002.203838	0.608320	19.967802
11745.825000	10002.140844	0.609132	19.947137
11745.826000	10002.952002	0.608738	19.967390
11745.827000	10002.885212	0.609072	19.963751
11745.828000	10003.101343	0.608669	19.954620
11745.829000	10003.143356	0.608394	19.964118
11745.830000	10003.060067	0.608502	19.962699
11745.831000	10003.217883	0.608944	19.954254
11745.832000	10003.092825	0.608429	19.963736
11745.833000	10003.216285	0.608433	19.968817
11745.834000	10003.454836	0.608428	19.961776
11745.835000	10003.760246	0.608361	19.955360
11745.836000	10003.191319	0.608256	19.956291
11745.837000	10004.156792	0.608111	19.951874
11745.838000	10004.030625	0.608193	19.946809
11745.839000	10003.792656	0.607924	19.948663
11745.840000	10003.254478	0.607988	19.945664
11745.841000	10003.780455	0.607608	19.947251
11745.842000	10004.169064	0.607455	19.953949
11745.843000	10003.774358	0.607598	19.951599
11745.844000	10003.373916	0.607594	19.952912
11745.845000	10003.750453	0.607673	19.956024
11745.846000	10004.171989	0.607145	19.964667
11745.847000	10004.738028	0.607729	19.960830
11745.848000	10004.346354	0.607836	19.966589
11745.849000	10004.590364	0.607589	19.972234
11745.850000	10004.773870	0.607523	19.974126
11745.851000	10005.135873	0.608484	19.972822
11745.852000	10005.388740	0.609132	19.971922
11745.853000	10005.306678	0.608597	19.976636
11745.854000	10005.606981	0.609170	19.957702
11745.855000	10005.698346	0.609050	19.972837
11745.856000	10006.192349	0.609605	19.958114
11745.857000	10005.991139	0.609126	19.964995
11745.858000	10005.995410	0.608840	19.953438
11745.859000	10006.379834	0.609097	19.951233
11745.860000	10005.858229	0.608843	19.948991
11745.861000	10006.153388	0.608501	19.953659
11745.862000	10006.282169	0.608576	19.948335
11745.863000	10006.461287	0.608361	19.945421
11745.864000	10005.633921	0.608383	19.946389
11745.865000	10006.768595	0.608078	19.946130
11745.866000	10006.310986	0.608079	19.943437
11745.867000	10006.580995	0.607939	19.945039
11745.868000	10006.681342	0.607833	19.940912
11745.869000	10007.205800	0.607668	19.948090
11745.870000	10006.840025	0.607799	19.941194
11745.871000	10006.890407	0.607482	19.953377
11745.872000	10006.999219	0.608022	19.951615
11745.873000	10007.057470	0.608193	19.943903
11745.874000	10007.475136	0.607995	19.958007
11745.875000	10007.604441	0.607459	19.977460
11745.876000	10007.637015	0.608318	19.953430
11745.877000	10008.068311	0.607563	19.970136
11745.878000	10007.104506	0.607147	19.976262
11745.879000	10007.794724	0.607102	19.981099
11745.880000	10008.191784	0.606913	19.982838
11745.881000	10008.492067	0.607598	19.966124
11745.882000	10007.938470	0.607562	19.964629
11745.883000	10007.965982	0.607852	19.961303
11745.884000	10008.709381	0.607652	19.961723
11745.885000	10007.845979	0.608116	19.962531
11745.886000	10008.472590	0.608395	19.956566
11745.887000	10008.351109	0.608311	19.946153
11745.888000	10008.664940	0.607911	19.954910
11745.889000	10008.328074	0.607734	19.955185
11745.890000	10008.682072	0.607772	19.950966
11745.891000	10008.346890	0.608525	19.935786
11745.892000	10009.173789	0.607953	19.954612
11745.893000	10009.313855	0.608334	19.957916
11745.894000	10009.033065	0.608855	19.949174
11745.895000	10009.847371	0.608890	19.950349
11745.896000	10009.539086	0.609031	19.952805
11745.897000	10009.644740	0.609061	19.947510
11745.898000	10009.663580	0.609109	19.950471
11745.899000	10010.214186	0.608574	19.952354
11745.900000	10009.589312	0.608433	19.956436
11745.901000	10009.594732	0.608204	19.965712
11745.902000	10009.751699	0.608419	19.965125
11745.903000	10010.078136	0.608334	19.961242
11745.904000	10010.329268	0.608613	19.957481
11745.905000	10010.291111	0.608303	19.962782
11745.906000	10010.630033	0.608020	19.970114
11745.907000	10010.872033	0.608399	19.957687
11745.908000	10010.793396	0.608465	19.963767
11745.909000	10010.827358	0.608638	19.959113
11745.910000	10010.797832	0.608410	19.958419
11745.911000	10010.630739	0.608388	19.968107
11745.912000	10011.079277	0.608338	19.976407
11745.913000	10010.985584	0.608837	19.963370
11745.914000	10011.078076	0.607959	19.976560
11745.915000	10011.219991	0.608614	19.959090
11745.916000	10011.214502	0.608706	19.961738
11745.917000	10011.559669	0.608679	19.951660
11745.918000	10011.580560	0.608820	19.952050
11745.919000	10012.249275	0.608977	19.939623
11745.920000	10011.900739	0.608508	19.950287
11745.921000	10012.302390	0.608693	19.950341
11745.922000	10012.450748	0.609034	19.942453
11745.923000	10012.178319	0.608956	19.960097
11745.924000	10012.814356	0.609485	19.942247
11745.925000	10012.626634	0.609334	19.946549
11745.926000	10013.132403	0.608638	19.966002
11745.927000	10012.506302	0.608226	19.965712
11745.928000	10012.931444	0.608486	19.947190
11745.929000	10012.944169	0.608072	19.949997
11745.930000	10013.032541	0.607689	19.955437
11745.931000	10013.420018	0.607458	19.957855
11745.932000	10012.992413	0.607443	19.961600
11745.933000	10012.709715	0.607808	19.960883
11745.934000	10013.268637	0.607699	19.962531
11745.935000	10013.612360	0.607715	19.963134
11745.936000	10013.534805	0.607398	19.962386
11745.937000	10013.554562	0.607323	19.962493
11745.938000	10013.779329	0.607067	19.965590
11745.939000	10013.854184	0.606759	19.968832
11745.940000	10013.432449	0.607118	19.956405
11745.941000	10013.443982	0.607196	19.969450
11745.942000	10014.336923	0.607773	19.954475
11745.943000	10014.285963	0.608093	19.945954
11745.944000	10014.084667	0.608439	19.943689
11745.945000	10014.707769	0.608336	19.947999
11745.946000	10014.354190	0.608311	19.952072
11745.947000	10014.560562	0.608676	19.945367
11745.948000	10015.011539	0.608684	19.947602
11745.949000	10014.640666	0.608291	19.947038
11745.950000	10014.802423	0.607998	19.953812
11745.951000	10015.370556	0.608400	19.960860
11745.952000	10015.349856	0.608565	19.951844
11745.953000	10015.381428	0.608642	19.952004
11745.954000	10015.413210	0.608502	19.953720
11745.955000	10016.296872	0.608338	19.962752
11745.956000	10015.411422	0.608866	19.952568
11745.957000	10015.915351	0.608405	19.958320
11745.958000	10016.020141	0.607714	19.973180
11745.959000	10015.844393	0.607448	19.966437
11745.960000	10016.131179	0.607020	19.968176
11745.961000	10016.149509	0.607172	19.964011
11745.962000	10015.791332	0.606989	19.970114
11745.963000	10016.533157	0.607180	19.966917
11745.964000	10015.926049	0.607405	19.966017
11745.965000	10016.297152	0.607039	19.967070
11745.966000	10016.506185	0.607021	19.962188
11745.967000	10016.707591	0.607073	19.960280
11745.968000	10016.681710	0.607088	19.965178
11745.969000	10015.876198	0.607280	19.952683
11745.970000	10016.653682	0.607201	19.946107
11745.971000	10017.010463	0.607615	19.941561
11745.972000	10017.458556	0.607961	19.948510
11745.973000	10017.415208	0.608345	19.942529
11745.974000	10017.624747	0.608072	19.945749
11745.975000	10017.028740	0.609001	19.934649
11745.976000	10017.482481	0.608945	19.944520
11745.977000	10018.088307	0.608844	19.950394
11745.978000	10017.569614	0.608463	19.953804
11745.979000	10017.689209	0.607981	19.955459
11745.980000	10017.903157	0.607628	19.966574
11745.981000	10017.871954	0.607519	19.969259
11745.982000	10018.486788	0.607796	19.958267
11745.983000	10018.375928	0.607992	19.967131
11745.984000	10018.777360	0.607590	19.981610
11745.985000	10018.239259	0.607504	19.971105
11745.986000	10018.532808	0.607692	19.969610
11745.987000	10018.503609	0.607449	19.981670
11745.988000	10018.604991	0.608083	19.962622
11745.989000	10019.042030	0.607410	19.959396
11745.990000	10018.788584	0.607562	19.951172
11745.991000	10018.573301	0.607281	19.969480
11745.992000	10018.554009	0.608051	19.956741
11745.993000	10019.592518	0.608031	19.959617
11745.994000	10019.498605	0.608321	19.948075
11745.995000	10019.047709	0.608398	19.948968
11745.996000	10019.047436	0.608709	19.944345
11745.997000	10018.880017	0.608797	19.940187
11745.998000	10019.656826	0.608735	19.941316
11745.999000	10019.283246	0.608658	19.946130
11746.000000	10020.089438	0.608263	19.948067
11746.001000	10019.969260	0.608186	19.949708
11746.002000	10020.192067	0.608636	19.958305
11746.003000	10020.357514	0.609144	19.959762
11746.004000	10021.188583	0.608758	19.964446
11746.005000	10020.972423	0.608855	19.966795
11746.006000	10020.588847	0.608930	19.971578
11746.007000	10020.768598	0.608816	19.965025
11746.008000	10021.092906	0.608927	19.966673
11746.009000	10020.356739	0.608226	19.972928
11746.010000	10021.279263	0.607757	19.980130
11746.011000	10021.083336	0.608401	19.956482
11746.012000	10021.268985	0.607642	19.956764
11746.013000	10020.754941	0.608124	19.949410
11746.014000	10021.586453	0.608510	19.941934
11746.015000	10020.816326	0.607753	19.953461
11746.016000	10021.289388	0.607588	19.956848
11746.017000	10021.354404	0.608059	19.944848
11746.018000	10021.926357	0.607806	19.944253
11746.019000	10021.775204	0.607391	19.955498
11746.020000	10021.524536	0.607384	19.946107
11746.021000	10022.028666	0.607686	19.953491
11746.022000	10021.865056	0.607927	19.955810
11746.023000	10022.528837	0.608528	19.946130
11746.024000	10022.790294	0.608568	19.946061
11746.025000	10022.466920	0.608128	19.967139
11746.026000	10022.364966	0.607871	19.970083
11746.027000	10022.390513	0.607894	19.973043
11746.028000	10022.676939	0.608522	19.960143
11746.029000	10023.007727	0.608001	19.967429
11746.030000	10023.259499	0.607767	19.961837
11746.031000	10022.662419	0.607421	19.968794
11746.032000	10022.862898	0.607713	19.970373
11746.033000	10023.270610	0.608270	19.969076
11746.034000	10023.130540	0.608332	19.959640
11746.035000	10023.417903	0.608356	19.954201
11746.036000	10023.958983	0.608590	19.951958
11746.037000	10023.817830	0.608099	19.952751
11746.038000	10023.813081	0.607898	19.956268
11746.039000	10023.602102	0.608048	19.960250
11746.040000	10024.401858	0.608461	19.943864
11746.041000	10024.019336	0.608328	19.944497
11746.042000	10023.886701	0.608620	19.946656
11746.043000	10023.823494	0.608869	19.947510
11746.044000	10024.154832	0.608192	19.952195
11746.045000	10024.582970	0.607894	19.959922
11746.046000	10024.585520	0.608442	19.949082
11746.047000	10024.433669	0.608196	19.953133
11746.048000	10024.606520	0.607896	19.952645
11746.049000	10024.483189	0.608063	19.945336
11746.050000	10024.986128	0.607745	19.957786
11746.051000	10024.976575	0.607997	19.954246
11746.052000	10024.900636	0.608199	19.958511
11746.053000	10025.287080	0.608279	19.957649
11746.054000	10025.842840	0.608352	19.955841
11746.055000	10025.592494	0.608453	19.960647
11746.056000	10025.593969	0.608637	19.962302
11746.057000	10025.483466	0.608619	19.965605
11746.058000	10025.622419	0.608233	19.969374
11746.059000	10026.282765	0.608115	19.964178
11746.060000	10025.679071	0.607713	19.965826
11746.061000	10025.900333	0.607414	19.972020
11746.062000	10026.709693	0.607985	19.971952
11746.063000	10026.096077	0.608546	19.959281
11746.064000	10025.976033	0.608256	19.961890
11746.065000	10025.945759	0.608194	19.955131
11746.066000	10026.358520	0.608631	19.942919
11746.067000	10026.419889	0.608152	19.959899
11746.068000	10026.470545	0.608467	19.947289
11746.069000	10026.862605	0.608072	19.943826
11746.070000	10027.455815	0.607808	19.946442
11746.071000	10027.356273	0.608547	19.937853
11746.072000	10026.565772	0.608972	19.943002
11746.073000	10028.173926	0.608886	19.948197
11746.074000	10027.850584	0.608727	19.953598
11746.075000	10027.169025	0.609127	19.951172
11746.076000	10027.830639	0.608931	19.951348
11746.077000	10027.847196	0.608122	19.963721
11746.078000	10028.381762	0.607590	19.964552
11746.079000	10027.874576	0.607432	19.973310
11746.080000	10027.816764	0.607322	19.975835
11746.081000	10027.838837	0.606992	19.968786
11746.082000	10028.030785	0.607321	19.970403
11746.083000	10028.489823	0.607514	19.978444
11746.084000	10028.555176	0.607288	19.970296
11746.085000	10028.401456	0.607031	19.967680
11746.086000	10028.776051	0.607565	19.962737
11746.087000	10028.496215	0.607410	19.967245
11746.088000	10028.731159	0.607411	19.962279
11746.089000	10028.538503	0.607244	19.955704
11746.090000	10028.743200	0.607606	19.944452
11746.091000	10029.046602	0.607235	19.954445
11746.092000	10028.875724	0.607924	19.939211
11746.093000	10028.654074	0.607865	19.949914
11746.094000	10029.522749	0.608107	19.947572
11746.095000	10029.897131	0.607938	19.955414
11746.096000	10029.447675	0.607925	19.955581
11746.097000	10030.066219	0.608051	19.950677
11746.098000	10029.698958	0.608360	19.945619
11746.099000	10029.598360	0.607971	19.955215
11746.100000	10030.404804	0.607799	19.961631
11746.101000	10030.345802	0.608169	19.948014
11746.102000	10030.434734	0.608189	19.954818
11746.103000	10030.216833	0.608385	19.946862
11746.104000	10030.383844	0.608218	19.950349
11746.105000	10030.506539	0.607596	19.969931
11746.106000	10030.291823	0.607860	19.966071
11746.107000	10030.998848	0.607484	19.965025
11746.108000	10031.203020	0.607384	19.962760
11746.109000	10031.322525	0.606905	19.963370
11746.110000	10030.871131	0.606884	19.962249
11746.111000	10031.331846	0.607093	19.961989
11746.112000	10030.757284	0.607713	19.949341
11746.113000	10031.483623	0.607473	19.954574
11746.114000	10031.160669	0.608052	19.944971
11746.115000	10031.388255	0.607665	19.947938
11746.116000	10030.865742	0.607402	19.948388
11746.117000	10030.597352	0.607754	19.940515
11746.118000	10030.970918	0.607169	19.955475
11746.119000	10031.657763	0.606902	19.960853
11746.120000	10031.816487	0.606541	19.961425
11746.121000	10030.959675	0.607088	19.968672
11746.122000	10031.393207	0.607586	19.965956
11746.123000	10032.205445	0.608411	19.963530
11746.124000	10032.416387	0.608519	19.965964
11746.125000	10031.822934	0.609576	19.961715
11746.126000	10032.288101	0.609316	19.972623
11746.127000	10032.850095	0.609623	19.956649
11746.128000	10032.523839	0.610134	19.949944
11746.129000	10032.683095	0.609840	19.962882
11746.130000	10032.810303	0.609702	19.959388
11746.131000	10033.059213	0.609973	19.949586
11746.132000	10032.822592	0.610211	19.953957
11746.133000	10033.299085	0.610576	19.954651
11746.134000	10033.294766	0.610121	19.953354
11746.135000	10033.509869	0.609404	19.965430
11746.136000	10033.546259	0.610206	19.950333
11746.137000	10034.220556	0.609864	19.953980
11746.138000	10033.838273	0.609457	19.949647
11746.139000	10033.866888	0.608638	19.956840
11746.140000	10034.303515	0.608991	19.952904
11746.141000	10034.204427	0.608905	19.956238
11746.142000	10034.142012	0.608678	19.966368
11746.143000	10033.988642	0.608794	19.958808
11746.144000	10034.398771	0.608929	19.957267
11746.145000	10034.514361	0.608526	19.964751
11746.146000	10034.101991	0.608169	19.960799
11746.147000	10034.172910	0.607791	19.967299
11746.148000	10034.346297	0.607765	19.962004
11746.149000	10035.027666	0.607498	19.959686
11746.150000	10034.443381	0.607480	19.967352
11746.151000	10034.737363	0.607925	19.959709
11746.152000	10035.179817	0.608071	19.952698
11746.153000	10035.456597	0.608050	19.962401
11746.154000	10035.896077	0.608646	19.956008
11746.155000	10035.844649	0.608671	19.956871
11746.156000	10035.859429	0.608368	19.961989
11746.157000	10035.197131	0.608929	19.949662
11746.158000	10035.606022	0.608984	19.953354
11746.159000	10036.470687	0.608338	19.953911
11746.160000	10036.015743	0.607676	19.954773
11746.161000	10036.381794	0.607680	19.954124
11746.162000	10036.735253	0.607949	19.950516
11746.163000	10036.474688	0.607826	19.958800
11746.164000	10036.441013	0.608291	19.952324
11746.165000	10037.135717	0.608203	19.950387
11746.166000	10036.699267	0.608005	19.949181
11746.167000	10036.667497	0.607310	19.960471
11746.168000	10036.817677	0.606908	19.963195
11746.169000	10036.410877	0.607092	19.954544
11746.170000	10036.363203	0.606837	19.946374
11746.171000	10037.153726	0.606524	19.947465
11746.172000	10037.305088	0.606483	19.956093
11746.173000	10036.865162	0.607017	19.950913
11746.174000	10037.127155	0.606778	19.964736
11746.175000	10037.679474	0.607247	19.951645
11746.176000	10037.360984	0.607221	19.956222
11746.177000	10037.530565	0.607765	19.950951
11746.178000	10037.391013	0.607116	19.963637
11746.179000	10037.814219	0.606728	19.966849
11746.180000	10037.921428	0.607442	19.949731
11746.181000	10038.193864	0.607992	19.951294
11746.182000	10038.099020	0.608053	19.955177
11746.183000	10038.072606	0.607499	19.963629
11746.184000	10038.363126	0.607804	19.967741
11746.185000	10038.246141	0.608600	19.957496
11746.186000	10038.689655	0.607995	19.958732
11746.187000	10038.633009	0.607514	19.974363
11746.188000	10038.591382	0.607471	19.967642
11746.189000	10038.688755	0.608235	19.949814
11746.190000	10038.968747	0.607666	19.959587
11746.191000	10038.627150	0.607500	19.962844
11746.192000	10038.569296	0.608102	19.963828
11746.193000	10038.965970	0.608441	19.955841
11746.194000	10039.093462	0.608396	19.955597
11746.195000	10039.590717	0.608552	19.952828
11746.196000	10040.050606	0.608799	19.947747
11746.197000	10040.019129	0.608532	19.947320
11746.198000	10039.952132	0.608318	19.956817
11746.199000	10039.957944	0.608727	19.946000
11746.200000	10039.753878	0.608596	19.960715
11746.201000	10040.421175	0.608612	19.952599
11746.202000	10040.388003	0.608783	19.952553
11746.203000	10040.454343	0.608732	19.953553
11746.204000	10040.418384	0.608569	19.948456
11746.205000	10040.829418	0.608003	19.962066
11746.206000	10040.607958	0.608005	19.957283
11746.207000	10040.912593	0.608001	19.960059
11746.208000	10040.596769	0.607504	19.961410
11746.209000	10040.450158	0.607068	19.972097
11746.210000	10040.553781	0.606795	19.970312
11746.211000	10041.039926	0.607221	19.962699
11746.212000	10041.113238	0.607070	19.962554
11746.213000	10041.350624	0.607261	19.963034
11746.214000	10041.136094	0.607590	19.953468
11746.215000	10040.822167	0.607925	19.952858
11746.216000	10041.536625	0.607967	19.954224
11746.217000	10041.638568	0.607959	19.961448
11746.218000	10041.128490	0.608153	19.952637
11746.219000	10041.114313	0.607998	19.957824
11746.220000	10042.016850	0.607655	19.961860
11746.221000	10041.657505	0.608728	19.950142
11746.222000	10041.910214	0.608963	19.956443
11746.223000	10041.865130	0.608733	19.954597
11746.224000	10042.678343	0.608533	19.959571
11746.225000	10042.505217	0.609013	19.957275
11746.226000	10041.965493	0.609187	19.962829
11746.227000	10043.109883	0.609570	19.948098
11746.228000	10042.840715	0.609200	19.956336
11746.229000	10042.682902	0.609111	19.955688
11746.230000	10043.103168	0.609031	19.958183
11746.231000	10043.222352	0.608335	19.962096
11746.232000	10043.052939	0.608678	19.956001
11746.233000	10042.997223	0.609221	19.956886
11746.234000	10043.484254	0.608782	19.963843
11746.235000	10043.848359	0.608442	19.966017
11746.236000	10043.353237	0.608331	19.960327
11746.237000	10043.634899	0.608329	19.964507
11746.238000	10044.080858	0.608523	19.955177
11746.239000	10044.092349	0.608103	19.952370
11746.240000	10043.887309	0.607556	19.968870
11746.241000	10044.545716	0.607681	19.966551
11746.242000	10044.122248	0.607652	19.954338
11746.243000	10044.073901	0.608122	19.947007
11746.244000	10044.576615	0.608413	19.942560
11746.245000	10044.467155	0.607955	19.952858
11746.246000	10044.880106	0.607868	19.957710
11746.247000	10044.471432	0.607705	19.946039
11746.248000	10044.311129	0.607697	19.947465
11746.249000	10044.720972	0.607349	19.952523
11746.250000	10044.763192	0.607433	19.955604
11746.251000	10044.989263	0.606994	19.964537
11746.252000	10045.534551	0.607528	19.957260
11746.253000	10045.293279	0.607966	19.949959
11746.254000	10045.344238	0.607908	19.949403
11746.255000	10045.141645	0.608104	19.958129
11746.256000	10045.466926	0.608398	19.950837
11746.257000	10045.465704	0.608059	19.954628
11746.258000	10045.412586	0.607676	19.963301
11746.259000	10045.926006	0.607119	19.969992
11746.260000	10045.703432	0.607149	19.964819
11746.261000	10045.247625	0.607093	19.982937
11746.262000	10045.565446	0.608078	19.962569
11746.263000	10046.372964	0.608593	19.958305
11746.264000	10045.536596	0.607824	19.968847
11746.265000	10046.393437	0.608250	19.959907
11746.266000	10046.224136	0.608805	19.946290
11746.267000	10046.039750	0.608664	19.957061
11746.268000	10046.521197	0.608756	19.958275
11746.269000	10046.626414	0.608410	19.958137
11746.270000	10047.018924	0.608580	19.955780
11746.271000	10046.965885	0.609221	19.947663
11746.272000	10046.803232	0.609849	19.946710
11746.273000	10047.155189	0.610031	19.962516
11746.274000	10047.434848	0.610087	19.948014
11746.275000	10047.929673	0.609833	19.957893
11746.276000	10047.661881	0.609971	19.959197
11746.277000	10047.961081	0.609864	19.960136
11746.278000	10048.390887	0.609405	19.957954
11746.279000	10048.425157	0.609395	19.948746
11746.280000	10048.105462	0.609087	19.960174
11746.281000	10047.793714	0.608464	19.965132
11746.282000	10048.666049	0.608115	19.969961
11746.283000	10048.662022	0.609026	19.951508
11746.284000	10047.665751	0.608930	19.949837
11746.285000	10048.647124	0.607991	19.959640
11746.286000	10048.486631	0.607228	19.972051
11746.287000	10048.772024	0.607578	19.960342
11746.288000	10048.965701	0.608041	19.951767
11746.289000	10048.690991	0.607156	19.952889
11746.290000	10048.771861	0.607018	19.953499
11746.291000	10048.547221	0.606918	19.962089
11746.292000	10049.088701	0.607425	19.959075
11746.293000	10049.045654	0.607966	19.944825
11746.294000	10049.216647	0.607581	19.950509
11746.295000	10049.165898	0.606991	19.966811
11746.296000	10049.554114	0.607325	19.970091
11746.297000	10049.695546	0.607783	19.957328
11746.298000	10050.300147	0.608207	19.949555
11746.299000	10049.915336	0.607692	19.952485
11746.300000	10050.041925	0.608053	19.948258
11746.301000	10050.171402	0.607781	19.965880
11746.302000	10050.185305	0.608162	19.958381
11746.303000	10050.475575	0.608629	19.946420
11746.304000	10050.339896	0.607895	19.948518
11746.305000	10049.547683	0.607707	19.957283
11746.306000	10050.204591	0.607986	19.957588
11746.307000	10050.259945	0.608297	19.947694
11746.308000	10050.284922	0.607449	19.964140
11746.309000	10050.764698	0.607442	19.955047
11746.310000	10051.123626	0.607557	19.955292
11746.311000	10051.027815	0.607606	19.966467
11746.312000	10051.393826	0.607996	19.966071
11746.313000	10051.018433	0.608186	19.972410
11746.314000	10051.269724	0.608971	19.959899
11746.315000	10051.290070	0.608951	19.951966
11746.316000	10051.278999	0.609621	19.948853
11746.317000	10051.597749	0.608873	19.963072
11746.318000	10051.444617	0.608941	19.954498
11746.319000	10051.877163	0.608812	19.947038
11746.320000	10052.557622	0.608963	19.945825
11746.321000	10052.276830	0.608479	19.954178
11746.322000	10052.217576	0.608416	19.968245
11746.323000	10052.345081	0.609137	19.957245
11746.324000	10052.503677	0.609105	19.958984
11746.325000	10052.594210	0.608756	19.958755
11746.326000	10052.584724	0.608635	19.957023
11746.327000	10052.687231	0.607928	19.967093
11746.328000	10052.527492	0.607905	19.963774
11746.329000	10052.992475	0.607870	19.959952
11746.330000	10052.646809	0.607424	19.965506
11746.331000	10052.836579	0.607413	19.963507
11746.332000	10053.370965	0.607613	19.964171
11746.333000	10053.469529	0.607691	19.969267
11746.334000	10053.617249	0.607835	19.962691
11746.335000	10053.622113	0.608482	19.944512
11746.336000	10054.006694	0.608179	19.953163
11746.337000	10053.888451	0.607941	19.958625
11746.338000	10053.879911	0.608069	19.959144
11746.339000	10053.472014	0.607867	19.954338
11746.340000	10053.920591	0.607434	19.948906
11746.341000	10053.885392	0.607614	19.947572
11746.342000	10054.142056	0.607766	19.947709
11746.343000	10054.221819	0.607624	19.956443
11746.344000	10054.588736	0.607456	19.954582
11746.345000	10053.939845	0.607781	19.952774
11746.346000	10054.442083	0.608273	19.947427
11746.347000	10054.694552	0.607688	19.952988
11746.348000	10054.575056	0.607314	19.962569
11746.349000	10054.935841	0.607532	19.956008
11746.350000	10054.531611	0.607023	19.969854
11746.351000	10054.792658	0.607364	19.969053
11746.352000	10054.909672	0.607988	19.963408
11746.353000	10055.189663	0.608376	19.954674
11746.354000	10055.481838	0.608104	19.960517
11746.355000	10055.160117	0.607941	19.967215
11746.356000	10055.648409	0.608084	19.963858
11746.357000	10055.657507	0.608386	19.963317
11746.358000	10055.831908	0.608644	19.950692
11746.359000	10055.726402	0.608226	19.951286
11746.360000	10056.299633	0.608074	19.959625
11746.361000	10055.500879	0.608261	19.959312
11746.362000	10055.981179	0.608545	19.959274
11746.363000	10055.812505	0.609045	19.952622
11746.364000	10056.879814	0.609010	19.946191
11746.365000	10056.252525	0.608899	19.938570
11746.366000	10056.629310	0.608326	19.957954
11746.367000	10056.928341	0.608514	19.957717
11746.368000	10056.560136	0.608824	19.945176
11746.369000	10056.523320	0.608489	19.950135
11746.370000	10056.354639	0.607943	19.970358
11746.371000	10056.568943	0.607824	19.960746
11746.372000	10057.139966	0.607659	19.976560
11746.373000	10057.363944	0.608134	19.965926
11746.374000	10057.466375	0.607962	19.972349
11746.375000	10057.339916	0.608182	19.960418
11746.376000	10057.772189	0.608292	19.965071
11746.377000	10057.612436	0.608442	19.966963
11746.378000	10057.598628	0.609089	19.948136
11746.379000	10057.972945	0.608477	19.955170
11746.380000	10057.849970	0.607861	19.961982
11746.381000	10057.942573	0.608649	19.944276
11746.382000	10058.051154	0.608794	19.951599
11746.383000	10058.115461	0.608725	19.957199
11746.384000	10058.145162	0.608580	19.953171
11746.385000	10058.811657	0.608542	19.956642
11746.386000	10058.469346	0.608985	19.947229
11746.387000	10058.379066	0.608877	19.949433
11746.388000	10058.550651	0.608671	19.945970
11746.389000	10058.694400	0.608007	19.956505
11746.390000	10058.630460	0.608409	19.953178
11746.391000	10059.083264	0.608240	19.951889
11746.392000	10058.761674	0.608420	19.951241
11746.393000	10059.266683	0.608174	19.969198
11746.394000	10058.888549	0.608870	19.951905
11746.395000	10059.345445	0.608683	19.955612
11746.396000	10059.251410	0.608256	19.972089
11746.397000	10059.890340	0.608680	19.965163
11746.398000	10059.492176	0.608421	19.960349
11746.399000	10060.173897	0.608276	19.964758
11746.400000	10059.999598	0.608967	19.946702
11746.401000	10060.141197	0.608398	19.970015
11746.402000	10060.108825	0.608123	19.973287
11746.403000	10060.426692	0.608743	19.960936
11746.404000	10060.794427	0.608833	19.958610
11746.405000	10060.492629	0.608958	19.953438
11746.406000	10061.075505	0.608659	19.965285
11746.407000	10060.976808	0.608156	19.968237
11746.408000	10060.602825	0.608066	19.962767
11746.409000	10060.560258	0.608121	19.949837
11746.410000	10060.460824	0.607708	19.959136
11746.411000	10061.115303	0.607367	19.968641
11746.412000	10061.176600	0.607829	19.959251
11746.413000	10060.758446	0.608239	19.943910
11746.414000	10061.452504	0.607915	19.948060
11746.415000	10061.528698	0.607861	19.955185
11746.416000	10061.725976	0.608368	19.951294
11746.417000	10062.094338	0.608305	19.948243
11746.418000	10062.066816	0.608660	19.932879
11746.419000	10061.586195	0.608246	19.945268
11746.420000	10062.151946	0.607755	19.952103
11746.421000	10061.802697	0.607843	19.953796
11746.422000	10061.918450	0.608193	19.949875
11746.423000	10062.368397	0.608183	19.947244
11746.424000	10062.081469	0.607274	19.973088
11746.425000	10062.548460	0.607709	19.962775
11746.426000	10062.624046	0.607676	19.954651
11746.427000	10062.383545	0.607615	19.961860
11746.428000	10062.162748	0.607224	19.974591
11746.429000	10062.773819	0.607391	19.964118
11746.430000	10062.803891	0.607225	19.965056
11746.431000	10063.017005	0.607348	19.961944
11746.432000	10062.507766	0.607657	19.966322
11746.433000	10063.287903	0.607600	19.979039
11746.434000	10063.513578	0.607848	19.962600
11746.435000	10063.940890	0.608374	19.967482
11746.436000	10063.897558	0.608476	19.960853
11746.437000	10063.709162	0.608291	19.963164
11746.438000	10063.804286	0.608671	19.948159
11746.439000	10064.351739	0.608613	19.947350
11746.440000	10063.933593	0.608473	19.958457
11746.441000	10063.967909	0.608104	19.955520
11746.442000	10064.209240	0.608104	19.957359
11746.443000	10063.943133	0.608272	19.945947
11746.444000	10064.465106	0.608340	19.942728
11746.445000	10064.757935	0.608386	19.947274
11746.446000	10064.351035	0.608101	19.942194
11746.447000	10064.352365	0.608016	19.945802
11746.448000	10064.639527	0.608029	19.942796
11746.449000	10064.831978	0.607655	19.949410
11746.450000	10065.270726	0.607642	19.950958
11746.451000	10065.031653	0.607531	19.958595
11746.452000	10065.024569	0.607597	19.960944
11746.453000	10065.746032	0.607665	19.966399
11746.454000	10065.454651	0.608044	19.966063
11746.455000	10065.391824	0.607916	19.965697
11746.456000	10065.428355	0.607555	19.977322
11746.457000	10065.184833	0.607353	19.980725
11746.458000	10065.866237	0.607614	19.970953
11746.459000	10066.146052	0.607271	19.974393
11746.460000	10066.209237	0.606974	19.964705
11746.461000	10066.135731	0.607028	19.976079
11746.462000	10066.364217	0.607420	19.968412
11746.463000	10066.550357	0.608077	19.962134
11746.464000	10066.252921	0.608188	19.952782
11746.465000	10066.593265	0.608285	19.951401
11746.466000	10066.318674	0.608532	19.947557
11746.467000	10066.669819	0.607934	19.945787
11746.468000	10065.998613	0.607661	19.951386
11746.469000	10066.757375	0.608051	19.942179
11746.470000	10067.135606	0.607894	19.935793
11746.471000	10066.887353	0.607957	19.934840
11746.472000	10066.760779	0.607866	19.946549
11746.473000	10067.245274	0.608375	19.945481
11746.474000	10067.444591	0.608407	19.943765
11746.475000	10068.028118	0.608890	19.936610
11746.476000	10067.101396	0.608837	19.938197
11746.477000	10067.644968	0.608248	19.960685
11746.478000	10067.646934	0.608241	19.950531
11746.479000	10067.553093	0.608234	19.959090
11746.480000	10068.023919	0.607881	19.959861
11746.481000	10066.998056	0.607682	19.964347
11746.482000	10067.654418	0.607780	19.969900
11746.483000	10068.546613	0.607740	19.976056
11746.484000	10068.257625	0.608052	19.978200
11746.485000	10068.346191	0.608134	19.972760
11746.486000	10068.014559	0.608143	19.973745
11746.487000	10068.485314	0.608483	19.970640
11746.488000	10068.601109	0.608488	19.968596
11746.489000	10068.804802	0.608204	19.973119
11746.490000	10069.029557	0.607802	19.968115
11746.491000	10068.879545	0.608031	19.962073
11746.492000	10068.824556	0.608893	19.959540
11746.493000	10069.497479	0.609148	19.963119
11746.494000	10069.489306	0.609258	19.949700
11746.495000	10069.470900	0.609318	19.947450
11746.496000	10070.114690	0.609590	19.944589
11746.497000	10069.822052	0.609429	19.943719
11746.498000	10069.188510	0.609065	19.944551
11746.499000	10069.905703	0.608728	19.945077
11746.500000	10069.255492	0.608784	19.948312
11746.501000	10069.617967	0.608471	19.952400
11746.502000	10070.645857	0.608388	19.959113
11746.503000	10070.158938	0.608558	19.945588
11746.504000	10070.308632	0.608213	19.953568
11746.505000	10070.397841	0.608261	19.959830
11746.506000	10070.963269	0.608200	19.958137
11746.507000	10070.668788	0.608420	19.964552
11746.508000	10070.798518	0.608483	19.958641
11746.509000	10070.566011	0.608330	19.962432
11746.510000	10070.480253	0.607867	19.965636
11746.511000	10071.412796	0.607817	19.966483
11746.512000	10071.544322	0.608116	19.964354
11746.513000	10071.642505	0.608091	19.958144
11746.514000	10070.861267	0.607665	19.974241
11746.515000	10071.610094	0.608171	19.961669
11746.516000	10071.602785	0.608464	19.960624
11746.517000	10071.516030	0.607814	19.972448
11746.518000	10071.920221	0.607778	19.962111
11746.519000	10071.979020	0.607449	19.960601
11746.520000	10072.000527	0.607505	19.959510
11746.521000	10071.977735	0.608028	19.948197
11746.522000	10071.687297	0.607966	19.955406
11746.523000	10072.286177	0.608339	19.951172
11746.524000	10072.665961	0.608606	19.940538
11746.525000	10072.520289	0.608403	19.946534
11746.526000	10071.751517	0.608443	19.945115
11746.527000	10072.753420	0.608139	19.946206
11746.528000	10072.949706	0.607953	19.946702
11746.529000	10072.864096	0.608182	19.949410
11746.530000	10072.856845	0.607925	19.947045
11746.531000	10073.042906	0.607843	19.947251
11746.532000	10073.557145	0.608392	19.941523
11746.533000	10073.200843	0.608153	19.964369
11746.534000	10073.075388	0.608230	19.963042
11746.535000	10073.331261	0.607988	19.957183
11746.536000	10073.503259	0.608165	19.962791
11746.537000	10073.785689	0.608129	19.963751
11746.538000	10073.765961	0.607605	19.973875
11746.539000	10074.243879	0.607074	19.971029
11746.540000	10073.771163	0.607325	19.968107
11746.541000	10073.622633	0.608064	19.959960
11746.542000	10073.928601	0.607463	19.986171
11746.543000	10074.016355	0.607624	19.975537
11746.544000	10074.745063	0.607857	19.966055
11746.545000	10074.626640	0.607722	19.965239
11746.546000	10074.218898	0.608177	19.956108
11746.547000	10075.034302	0.608282	19.950493
11746.548000	10075.099622	0.608226	19.956619
11746.549000	10074.769192	0.608776	19.939295
11746.550000	10074.685859	0.608768	19.934779
11746.551000	10075.253015	0.608160	19.945230
11746.552000	10075.236223	0.608347	19.945413
11746.553000	10075.680334	0.609163	19.929050
11746.554000	10074.881902	0.608544	19.947549
11746.555000	10075.713223	0.608067	19.954612
11746.556000	10075.491611	0.608126	19.948007
11746.557000	10075.134227	0.608252	19.952515
11746.558000	10075.849160	0.608052	19.955124
11746.559000	10076.001101	0.607146	19.962111
11746.560000	10076.233816	0.606865	19.964530
11746.561000	10075.633793	0.607168	19.970968
11746.562000	10075.851640	0.607386	19.962378
11746.563000	10076.548026	0.607563	19.963309
11746.564000	10075.919384	0.607567	19.966994
11746.565000	10076.274131	0.607903	19.969938
11746.566000	10076.350159	0.607890	19.959464
11746.567000	10076.580766	0.607941	19.957489
11746.568000	10076.474165	0.607941	19.963736
11746.569000	10076.690514	0.607798	19.963790
11746.570000	10077.294137	0.607648	19.956993
11746.571000	10077.100442	0.608066	19.958503
11746.572000	10077.226837	0.608627	19.957229
11746.573000	10077.374364	0.609039	19.952385
11746.574000	10077.482411	0.608579	19.962981
11746.575000	10078.044160	0.608769	19.958854
11746.576000	10077.722532	0.609168	19.951531
11746.577000	10077.683545	0.608531	19.958564
11746.578000	10077.452744	0.608092	19.956008
11746.579000	10077.750118	0.607484	19.969335
11746.580000	10077.559414	0.607555	19.972333
11746.581000	10077.889652	0.608044	19.953675
11746.582000	10077.899013	0.608111	19.944848
11746.583000	10078.112364	0.607958	19.959617
11746.584000	10078.293031	0.607714	19.963332
11746.585000	10077.942256	0.608441	19.950257
11746.586000	10078.363699	0.608273	19.955551
11746.587000	10077.865702	0.608418	19.953743
11746.588000	10078.261222	0.608819	19.942827
11746.589000	10078.332798	0.608074	19.959548
11746.590000	10079.001312	0.607881	19.960662
11746.591000	10078.936987	0.608037	19.960158
11746.592000	10079.208335	0.608526	19.964255
11746.593000	10079.024886	0.609425	19.955330
11746.594000	10079.858824	0.609326	19.960578
11746.595000	10079.368910	0.609806	19.956199
11746.596000	10079.782751	0.610282	19.946122
11746.597000	10079.827046	0.609820	19.951226
11746.598000	10080.143427	0.609327	19.955780
11746.599000	10080.207592	0.609335	19.955948
11746.600000	10080.129806	0.608568	19.966124
11746.601000	10080.442966	0.608322	19.969168
11746.602000	10080.644794	0.609075	19.949997
11746.603000	10080.190835	0.608619	19.954048
11746.604000	10080.222927	0.608157	19.959220
11746.605000	10080.762067	0.608105	19.962851
11746.606000	10080.510680	0.607954	19.959571
11746.607000	10080.364531	0.607630	19.959388
11746.608000	10081.080186	0.607514	19.959899
11746.609000	10080.608238	0.607307	19.954765
11746.610000	10080.693354	0.606565	19.967169
11746.611000	10080.891853	0.606947	19.960319
11746.612000	10080.783182	0.607158	19.953216
11746.613000	10081.459229	0.607605	19.948929
11746.614000	10081.517685	0.607149	19.964194
11746.615000	10081.338558	0.607086	19.965842
11746.616000	10081.522311	0.607561	19.956795
11746.617000	10081.472137	0.607758	19.953377
11746.618000	10081.527508	0.608139	19.945657
11746.619000	10081.443083	0.607603	19.955528
11746.620000	10082.092992	0.607500	19.955970
11746.621000	10081.850244	0.607561	19.952354
11746.622000	10082.536964	0.607975	19.950829
11746.623000	10082.762210	0.608192	19.950509
11746.624000	10082.460290	0.608233	19.953079
11746.625000	10082.788816	0.608593	19.948968
11746.626000	10082.967631	0.608749	19.948884
11746.627000	10082.755757	0.608593	19.953446
11746.628000	10083.104833	0.607786	19.966498
11746.629000	10083.320345	0.607738	19.960380
11746.630000	10082.989331	0.607331	19.971799
11746.631000	10083.569841	0.607846	19.959564
11746.632000	10083.694388	0.607646	19.955459
11746.633000	10082.846004	0.607670	19.963301
11746.634000	10083.755738	0.607438	19.956649
11746.635000	10084.189143	0.607514	19.954940
11746.636000	10083.386238	0.607738	19.954490
11746.637000	10083.848186	0.607248	19.955734
11746.638000	10084.323371	0.606900	19.961105
11746.639000	10083.968763	0.607026	19.942857
11746.640000	10083.119339	0.606295	19.960158
11746.641000	10083.369142	0.606621	19.955993
11746.642000	10084.000417	0.607176	19.947533
11746.643000	10083.985795	0.606949	19.953323
11746.644000	10083.436623	0.606891	19.960288
11746.645000	10084.114257	0.607341	19.946664
11746.646000	10084.217452	0.606885	19.954124
11746.647000	10084.265407	0.607381	19.957702
11746.648000	10084.717702	0.607763	19.962378
11746.649000	10084.271555	0.607209	19.971701
11746.650000	10084.664451	0.607380	19.963660
11746.651000	10084.509616	0.607960	19.972295
11746.652000	10085.507828	0.609108	19.958328
11746.653000	10085.674092	0.608711	19.969221
11746.654000	10085.742339	0.608994	19.967741
11746.655000	10085.307439	0.609739	19.955139
11746.656000	10085.619097	0.609723	19.968687
11746.657000	10085.644293	0.609396	19.972890
11746.658000	10085.729155	0.609065	19.971433
11746.659000	10085.280777	0.609090	19.958427
11746.660000	10085.901534	0.608564	19.959945
11746.661000	10086.026457	0.608629	19.956367
11746.662000	10086.333492	0.609192	19.948815
11746.663000	10085.977617	0.608980	19.952721
11746.664000	10086.719945	0.609198	19.944421
11746.665000	10086.149600	0.608917	19.950318
11746.666000	10086.144709	0.609229	19.948953
11746.667000	10087.026734	0.609359	19.944703
11746.668000	10086.666326	0.608769	19.947396
11746.669000	10086.672858	0.608366	19.946481
11746.670000	10087.552702	0.608368	19.955406
11746.671000	10087.768906	0.608387	19.956665
11746.672000	10087.320767	0.608610	19.950417
11746.673000	10087.376874	0.609017	19.956314
11746.674000	10087.417289	0.608628	19.965910
11746.675000	10087.005968	0.607897	19.972204
11746.676000	10087.699915	0.608606	19.959381
11746.677000	10087.539855	0.608212	19.961913
11746.678000	10087.873798	0.607577	19.962470
11746.679000	10087.887690	0.607316	19.964163
11746.680000	10087.931861	0.607077	19.965491
11746.681000	10088.457548	0.607064	19.968535
11746.682000	10088.382948	0.607316	19.968992
11746.683000	10087.778489	0.607924	19.958686
11746.684000	10088.191092	0.608118	19.948533
11746.685000	10088.337045	0.608086	19.953087
11746.686000	10088.878161	0.607909	19.961318
11746.687000	10088.930760	0.607600	19.961249
11746.688000	10088.442652	0.607504	19.957992
11746.689000	10088.376877	0.607592	19.951531
11746.690000	10088.666813	0.607567	19.951889
11746.691000	10088.743283	0.607721	19.962470
11746.692000	10088.834521	0.607688	19.960952
11746.693000	10088.985056	0.608060	19.951455
11746.694000	10089.036873	0.608093	19.944497
11746.695000	10089.298027	0.607867	19.953842
11746.696000	10089.506251	0.608997	19.940455
11746.697000	10090.215239	0.608490	19.958061
11746.698000	10089.755727	0.608363	19.955543
11746.699000	10089.276084	0.608455	19.955818
11746.700000	10089.857996	0.608466	19.956016
11746.701000	10090.450155	0.608498	19.961814
11746.702000	10090.078714	0.608807	19.967741
11746.703000	10089.987852	0.608669	19.971197
11746.704000	10090.069253	0.608985	19.956680
11746.705000	10090.449501	0.608758	19.958564
11746.706000	10090.506592	0.609013	19.966505
11746.707000	10090.619152	0.608619	19.968237
11746.708000	10090.279365	0.608128	19.968885
11746.709000	10091.178743	0.608090	19.955071
11746.710000	10091.390306	0.608162	19.959396
11746.711000	10091.281167	0.608676	19.956467
11746.712000	10090.939564	0.608450	19.968138
11746.713000	10091.209451	0.608674	19.961845
11746.714000	10091.848332	0.609111	19.955993
11746.715000	10091.683351	0.609222	19.959266
11746.716000	10091.513510	0.608750	19.954864
11746.717000	10091.736215	0.608424	19.962241
11746.718000	10091.560648	0.608357	19.952324
11746.719000	10091.758036	0.608241	19.951950
11746.720000	10091.704394	0.607589	19.962782
11746.721000	10091.903342	0.607990	19.948655
11746.722000	10091.847775	0.607960	19.952393
11746.723000	10091.744570	0.608522	19.945466
11746.724000	10092.048325	0.608328	19.946977
11746.725000	10092.830575	0.608001	19.954132
11746.726000	10092.629783	0.608106	19.956039
11746.727000	10092.743361	0.608343	19.943986
11746.728000	10092.061163	0.608526	19.943056
11746.729000	10092.676166	0.608215	19.955742
11746.730000	10092.814646	0.607898	19.965880
11746.731000	10092.992308	0.607725	19.975721
11746.732000	10092.835759	0.608396	19.961883
11746.733000	10093.221632	0.608317	19.964049
11746.734000	10093.736560	0.608161	19.973646
11746.735000	10093.072790	0.608564	19.962813
11746.736000	10093.300256	0.608928	19.961021
11746.737000	10093.739101	0.608750	19.963957
11746.738000	10093.720888	0.608202	19.971159
11746.739000	10094.158382	0.608302	19.967642
11746.740000	10094.121375	0.607970	19.971098
11746.741000	10094.253866	0.608275	19.958381
11746.742000	10094.516458	0.608576	19.958595
11746.743000	10094.063292	0.609050	19.955528
11746.744000	10094.296169	0.609230	19.954132
11746.745000	10094.679321	0.609479	19.944947
11746.746000	10094.591588	0.608921	19.951676
11746.747000	10094.658645	0.608488	19.958923
11746.748000	10094.813620	0.608741	19.950654
11746.749000	10094.431663	0.608319	19.942651
11746.750000	10094.884241	0.608296	19.939158
11746.751000	10094.873095	0.608289	19.945398
11746.752000	10095.286450	0.608436	19.940904
11746.753000	10095.318692	0.608528	19.940241
11746.754000	10095.322716	0.608310	19.945893
11746.755000	10095.691500	0.607972	19.969480
11746.756000	10095.811411	0.607862	19.958747
11746.757000	10096.204436	0.607635	19.966704
11746.758000	10095.620570	0.608017	19.962027
11746.759000	10095.976736	0.607447	19.967772
11746.760000	10095.618796	0.606980	19.980626
11746.761000	10095.605509	0.607339	19.972913
11746.762000	10096.107240	0.608083	19.958534
11746.763000	10096.530154	0.607968	19.965338
11746.764000	10096.513746	0.608051	19.959846
11746.765000	10096.132995	0.608069	19.954651
11746.766000	10096.514666	0.607882	19.960967
11746.767000	10096.936037	0.608059	19.958915
11746.768000	10096.709976	0.608043	19.961966
11746.769000	10096.763609	0.607457	19.967520
11746.770000	10096.730655	0.607644	19.956390
11746.771000	10096.955347	0.607830	19.945474
11746.772000	10097.264099	0.608559	19.941492
11746.773000	10097.353170	0.608717	19.944230
11746.774000	10097.549904	0.607848	19.958472
11746.775000	10097.004656	0.608053	19.944452
11746.776000	10096.811772	0.608293	19.951882
11746.777000	10097.558480	0.608541	19.956764
11746.778000	10098.151632	0.608019	19.960441
11746.779000	10097.108186	0.607432	19.962073
11746.780000	10097.102895	0.607347	19.965514
11746.781000	10097.804580	0.607722	19.954842
11746.782000	10097.634534	0.607905	19.967695
11746.783000	10097.992817	0.608466	19.967489
11746.784000	10098.572235	0.608518	19.965559
11746.785000	10098.334741	0.608379	19.956008
11746.786000	10098.476500	0.608675	19.960296
11746.787000	10099.122305	0.609467	19.969068
11746.788000	10098.535566	0.609499	19.962966
11746.789000	10097.961587	0.609156	19.956360
11746.790000	10099.149413	0.608777	19.958472
11746.791000	10099.557742	0.609167	19.959396
11746.792000	10099.377902	0.609631	19.953026
11746.793000	10098.908550	0.609057	19.960624
11746.794000	10099.620452	0.608970	19.953117
11746.795000	10099.664372	0.609012	19.947838
11746.796000	10099.373935	0.609328	19.957000
11746.797000	10100.040723	0.609300	19.947633
11746.798000	10099.983406	0.609029	19.943300
11746.799000	10099.766469	0.607966	19.963759
11746.800000	10099.503175	0.608382	19.960647
11746.801000	10100.111561	0.608631	19.945344
11746.802000	10100.230010	0.608019	19.958259
11746.803000	10100.278570	0.608150	19.957672
11746.804000	10100.330004	0.608286	19.956939
11746.805000	10100.779151	0.608047	19.959777
11746.806000	10100.278257	0.607825	19.957573
11746.807000	10100.209564	0.608050	19.954010
11746.808000	10100.973858	0.608099	19.955238
11746.809000	10101.242070	0.607617	19.955063
11746.810000	10101.440533	0.607319	19.957672
11746.811000	10101.273061	0.607844	19.951096
11746.812000	10101.163226	0.607654	19.957740
11746.813000	10101.238788	0.607463	19.969687
11746.814000	10100.927516	0.608104	19.968107
11746.815000	10101.415622	0.608202	19.957412
11746.816000	10101.594261	0.607916	19.959037
11746.817000	10101.740165	0.607057	19.966498
11746.818000	10101.517390	0.607067	19.963065
11746.819000	10101.233632	0.607380	19.954636
11746.820000	10101.803489	0.607124	19.958152
11746.821000	10101.927196	0.607543	19.956459
11746.822000	10101.622860	0.607475	19.964789
11746.823000	10102.264958	0.607946	19.945825
11746.824000	10102.302899	0.607831	19.954574
11746.825000	10102.181274	0.608454	19.942865
11746.826000	10102.311162	0.608238	19.951516
11746.827000	10102.823497	0.607987	19.965521
11746.828000	10102.839198	0.608345	19.946000
11746.829000	10102.613934	0.608137	19.954445
11746.830000	10102.623956	0.608365	19.956375
11746.831000	10102.766770	0.608292	19.963294
11746.832000	10103.749194	0.608551	19.948670
11746.833000	10103.260167	0.608678	19.955902
11746.834000	10103.639461	0.608487	19.965986
11746.835000	10103.142557	0.608934	19.959190
11746.836000	10103.378018	0.608555	19.962973
11746.837000	10103.212988	0.609202	19.950692
11746.838000	10103.498790	0.608658	19.960220
11746.839000	10103.515607	0.607862	19.966101
11746.840000	10104.200307	0.607530	19.967741
11746.841000	10104.016667	0.608144	19.953354
11746.842000	10103.771488	0.608683	19.947640
11746.843000	10104.403014	0.608578	19.957763
11746.844000	10104.228509	0.608499	19.961592
11746.845000	10104.563453	0.608721	19.962279
11746.846000	10104.918878	0.609320	19.950852
11746.847000	10104.958434	0.608718	19.955948
11746.848000	10104.443527	0.608436	19.956726
11746.849000	10104.715898	0.608380	19.961860
11746.850000	10104.845982	0.608294	19.960174
11746.851000	10105.256198	0.608419	19.956451
11746.852000	10105.246366	0.608466	19.959281
11746.853000	10105.692252	0.608293	19.964034
11746.854000	10105.728860	0.607956	19.962889
11746.855000	10105.248700	0.607808	19.971815
11746.856000	10104.974056	0.608476	19.965559
11746.857000	10104.963414	0.608350	19.959594
11746.858000	10105.557431	0.607996	19.962294
11746.859000	10105.215688	0.607696	19.962592
11746.860000	10105.780702	0.607972	19.955505
11746.861000	10106.004338	0.607676	19.954987
11746.862000	10105.926150	0.607870	19.951188
11746.863000	10105.992996	0.608845	19.943086
11746.864000	10106.105235	0.608813	19.956383
11746.865000	10106.037098	0.609091	19.949341
11746.866000	10106.474290	0.608934	19.957359
11746.867000	10106.458591	0.608987	19.952485
11746.868000	10106.816194	0.608913	19.964026
11746.869000	10106.675200	0.608293	19.963561
11746.870000	10107.167299	0.608890	19.954826
11746.871000	10107.226381	0.609103	19.954246
11746.872000	10107.690259	0.608945	19.964430
11746.873000	10107.016630	0.609284	19.957092
11746.874000	10107.438717	0.609145	19.960120
11746.875000	10107.538837	0.609212	19.964812
11746.876000	10107.411542	0.609323	19.956848
11746.877000	10107.261035	0.608622	19.965720
11746.878000	10107.201845	0.608182	19.965384
11746.879000	10107.699561	0.608165	19.961135
11746.880000	10107.579532	0.607921	19.951798
11746.881000	10107.705640	0.608013	19.954674
11746.882000	10108.151638	0.608359	19.955246
11746.883000	10107.939887	0.608813	19.950120
11746.884000	10108.677397	0.608699	19.957069
11746.885000	10109.113836	0.608607	19.955902
11746.886000	10109.280424	0.608455	19.967558
11746.887000	10109.162109	0.608958	19.952202
11746.888000	10108.578179	0.608896	19.961638
11746.889000	10108.788436	0.608537	19.963850
11746.890000	10108.534307	0.608530	19.961676
11746.891000	10108.858261	0.608248	19.962035
11746.892000	10108.756425	0.608096	19.953072
11746.893000	10109.151039	0.607997	19.949570
11746.894000	10108.986769	0.607701	19.954452
11746.895000	10109.874097	0.607527	19.959014
11746.896000	10110.098017	0.607961	19.954224
11746.897000	10109.223622	0.608118	19.946305
11746.898000	10109.344019	0.608270	19.946557
11746.899000	10109.981107	0.608074	19.951950
11746.900000	10109.959706	0.607706	19.954826
11746.901000	10109.840628	0.607820	19.962501
11746.902000	10110.356379	0.608067	19.944627
11746.903000	10109.852626	0.608067	19.951943
11746.904000	10110.398330	0.608022	19.962462
11746.905000	10110.224866	0.608334	19.956939
11746.906000	10110.881279	0.607826	19.968443
11746.907000	10110.154289	0.607771	19.967772
11746.908000	10110.916802	0.608141	19.962287
11746.909000	10110.914983	0.608316	19.960921
11746.910000	10110.886226	0.608105	19.956336
11746.911000	10110.303149	0.608056	19.957000
11746.912000	10111.217575	0.608372	19.954826
11746.913000	10111.695235	0.608681	19.946847
11746.914000	10111.281089	0.608222	19.954544
11746.915000	10111.700584	0.608054	19.961783
11746.916000	10111.810311	0.608292	19.960563
11746.917000	10111.544999	0.608547	19.957313
11746.918000	10111.528092	0.608278	19.956184
11746.919000	10111.447350	0.608460	19.955040
11746.920000	10112.513402	0.607824	19.964468
11746.921000	10112.238996	0.607807	19.963736
11746.922000	10112.102941	0.608410	19.952919
11746.923000	10112.502103	0.608254	19.954964
11746.924000	10112.001225	0.608065	19.957161
11746.925000	10112.638019	0.608482	19.952980
11746.926000	10112.481856	0.608469	19.955467
11746.927000	10112.595041	0.608160	19.959564
11746.928000	10112.850767	0.607513	19.959152
11746.929000	10113.226100	0.607584	19.960113
11746.930000	10113.200843	0.607698	19.952034
11746.931000	10113.059932	0.607731	19.952393
11746.932000	10113.110166	0.608006	19.949693
11746.933000	10113.030150	0.608333	19.948380
11746.934000	10113.742726	0.608583	19.947831
11746.935000	10113.644409	0.607635	19.963736
11746.936000	10113.601684	0.608065	19.946511
11746.937000	10114.184066	0.607928	19.953301
11746.938000	10113.402925	0.608022	19.948807
11746.939000	10114.004215	0.607213	19.959830
11746.940000	10114.295269	0.606742	19.978787
11746.941000	10114.091449	0.607114	19.970411
11746.942000	10114.494486	0.606973	19.974050
11746.943000	10113.955272	0.607536	19.956634
11746.944000	10114.367056	0.607366	19.961326
11746.945000	10114.255588	0.607325	19.962935
11746.946000	10114.119581	0.607632	19.959274
11746.947000	10114.742147	0.607762	19.950783
11746.948000	10114.580320	0.607184	19.951798
11746.949000	10114.794430	0.606619	19.965872
11746.950000	10114.990111	0.607286	19.955009
11746.951000	10114.991413	0.607651	19.954780
11746.952000	10115.348215	0.607868	19.952202
11746.953000	10115.574782	0.607922	19.961066
11746.954000	10115.164884	0.607979	19.960151
11746.955000	10115.353555	0.607919	19.948899
11746.956000	10115.730058	0.608313	19.946115
11746.957000	10115.458124	0.608187	19.952690
11746.958000	10116.173996	0.607997	19.957527
11746.959000	10115.618940	0.607725	19.960524
11746.960000	10116.035726	0.607507	19.955864
11746.961000	10116.476649	0.607882	19.955505
11746.962000	10116.099598	0.607913	19.954010
11746.963000	10115.834937	0.607876	19.966978
11746.964000	10116.180419	0.607524	19.965903
11746.965000	10116.298209	0.607735	19.963522
11746.966000	10115.818470	0.607879	19.967093
11746.967000	10116.033882	0.607645	19.968649
11746.968000	10116.542009	0.607689	19.954239
11746.969000	10116.590684	0.607336	19.956070
11746.970000	10116.240459	0.607599	19.951500
11746.971000	10116.618535	0.607905	19.955315
11746.972000	10117.022517	0.608063	19.957076
11746.973000	10116.893375	0.608836	19.956550
11746.974000	10117.295605	0.608828	19.959190
11746.975000	10117.040111	0.608982	19.953888
11746.976000	10116.982234	0.609141	19.959014
11746.977000	10117.019098	0.610077	19.944284
11746.978000	10117.138325	0.609489	19.962401
11746.979000	10117.936838	0.609189	19.966543
11746.980000	10118.025005	0.608944	19.963607
11746.981000	10117.782024	0.609680	19.946420
11746.982000	10118.415263	0.610070	19.945405
11746.983000	10118.657770	0.609544	19.962851
11746.984000	10118.417605	0.609552	19.963179
11746.985000	10118.901606	0.610096	19.959701
11746.986000	10119.022235	0.609716	19.967382
11746.987000	10119.205928	0.609736	19.963416
11746.988000	10119.152094	0.609099	19.972333
11746.989000	10119.069326	0.608823	19.971860
11746.990000	10118.972027	0.608588	19.957420
11746.991000	10118.817090	0.608358	19.964957
11746.992000	10119.260104	0.608590	19.959327
11746.993000	10119.601484	0.608552	19.960853
11746.994000	10119.503973	0.607758	19.967360
11746.995000	10119.611977	0.607921	19.952591
11746.996000	10119.436720	0.608242	19.951607
11746.997000	10119.858760	0.607711	19.958603
11746.998000	10119.218189	0.607655	19.945329
11746.999000	10119.609393	0.607514	19.936945
11747.000000	10119.982594	0.607227	19.945291
11747.001000	10120.004232	0.607485	19.942460
11747.002000	10120.044623	0.606994	19.956909
11747.003000	10119.877027	0.607053	19.953766
11747.004000	10119.201539	0.607827	19.947953
11747.005000	10120.060604	0.608089	19.941316
11747.006000	10120.541009	0.608187	19.952271
11747.007000	10120.076857	0.608161	19.952195
11747.008000	10120.767569	0.607602	19.960288
11747.009000	10120.885072	0.607373	19.964583
11747.010000	10120.825944	0.607777	19.962775
11747.011000	10120.892857	0.608118	19.967497
11747.012000	10121.604792	0.608432	19.969122
11747.013000	10121.549306	0.608645	19.970777
11747.014000	10121.125390	0.608966	19.968122
11747.015000	10121.319160	0.608677	19.975255
11747.016000	10121.164088	0.608522	19.970976
11747.017000	10121.282619	0.608538	19.970671
11747.018000	10121.671377	0.608615	19.966292
11747.019000	10121.875108	0.608424	19.955345
11747.020000	10122.599807	0.607739	19.967070
11747.021000	10122.395221	0.608380	19.955727
11747.022000	10122.413456	0.608923	19.945268
11747.023000	10122.350029	0.608775	19.953781
11747.024000	10122.709905	0.608894	19.952408
11747.025000	10122.340019	0.609176	19.943109
11747.026000	10122.882198	0.608830	19.957336
11747.027000	10122.540600	0.608491	19.951401
11747.028000	10122.795476	0.608057	19.955307
11747.029000	10123.128834	0.607507	19.962782
11747.030000	10123.201267	0.607740	19.944002
11747.031000	10122.850501	0.608006	19.942102
11747.032000	10123.066932	0.607523	19.944825
11747.033000	10123.416106	0.607682	19.949929
11747.034000	10123.801968	0.607583	19.954765
11747.035000	10123.412692	0.607820	19.950097
11747.036000	10122.904575	0.607781	19.947945
11747.037000	10123.149356	0.607435	19.953949
11747.038000	10123.987736	0.606981	19.970693
11747.039000	10123.089674	0.607036	19.969885
11747.040000	10123.786221	0.607030	19.958907
11747.041000	10124.178057	0.606835	19.966399
11747.042000	10123.407399	0.607283	19.965887
11747.043000	10124.403253	0.607839	19.967039
11747.044000	10124.624704	0.608413	19.957397
11747.045000	10124.542863	0.607972	19.964858
11747.046000	10124.545064	0.607896	19.966261
11747.047000	10124.240156	0.608552	19.961516
11747.048000	10124.520894	0.608341	19.959670
11747.049000	10125.008516	0.608393	19.959617
11747.050000	10124.451491	0.608385	19.959892
11747.051000	10124.984365	0.608399	19.959983
11747.052000	10125.702071	0.608443	19.956238
11747.053000	10125.447868	0.609040	19.949624
11747.054000	10125.160363	0.608978	19.952416
11747.055000	10125.446853	0.609199	19.940958
11747.056000	10125.287509	0.608929	19.948007
11747.057000	10125.495725	0.608877	19.950104
11747.058000	10125.274957	0.608332	19.958450
11747.059000	10125.395465	0.608334	19.947724
11747.060000	10125.868042	0.607853	19.957260
11747.061000	10126.164460	0.608174	19.947015
11747.062000	10125.865654	0.608400	19.957855
11747.063000	10126.199617	0.608594	19.952988
11747.064000	10126.482492	0.608536	19.955437
11747.065000	10126.828596	0.609093	19.954971
11747.066000	10126.756166	0.608690	19.967879
11747.067000	10126.575445	0.608665	19.969053
11747.068000	10126.775494	0.608182	19.970510
11747.069000	10126.238823	0.608269	19.967505
11747.070000	10126.533446	0.608387	19.965796
11747.071000	10127.117281	0.607972	19.965628
11747.072000	10126.767283	0.608046	19.965666
11747.073000	10126.438559	0.608027	19.963675
11747.074000	10126.762261	0.608275	19.960639
11747.075000	10126.519669	0.608377	19.961554
11747.076000	10127.406363	0.608762	19.959983
11747.077000	10127.788047	0.608128	19.967077
11747.078000	10127.843395	0.608690	19.955886
11747.079000	10127.319809	0.608193	19.968031
11747.080000	10128.268045	0.608566	19.964102
11747.081000	10128.580293	0.609390	19.958747
11747.082000	10127.972363	0.609728	19.955566
11747.083000	10128.281726	0.609534	19.956779
11747.084000	10128.904161	0.609587	19.960273
11747.085000	10128.472802	0.609984	19.942033
11747.086000	10128.858322	0.609763	19.950478
11747.087000	10129.386780	0.609521	19.947778
11747.088000	10129.191479	0.608922	19.943780
11747.089000	10128.826175	0.608624	19.952698
11747.090000	10129.006335	0.608224	19.960792
11747.091000	10129.325166	0.608662	19.941561
11747.092000	10129.403705	0.607883	19.961410
11747.093000	10129.232697	0.607504	19.964415
11747.094000	10129.425982	0.607381	19.963362
11747.095000	10129.341360	0.607542	19.955902
11747.096000	10129.855186	0.607181	19.957428
11747.097000	10129.231836	0.607002	19.967955
11747.098000	10129.194969	0.607092	19.958976
11747.099000	10130.342155	0.606572	19.957107
11747.100000	10129.577737	0.606613	19.955948
11747.101000	10129.253583	0.607247	19.946122
11747.102000	10129.523216	0.607321	19.943872
11747.103000	10130.121789	0.607180	19.952202
11747.104000	10130.134440	0.607500	19.948319
11747.105000	10130.292961	0.607610	19.946427
11747.106000	10130.492779	0.607680	19.952157
11747.107000	10130.211286	0.607519	19.959190
11747.108000	10130.509836	0.607827	19.954254
11747.109000	10130.550848	0.608211	19.955032
11747.110000	10130.523389	0.608335	19.961105
11747.111000	10130.561804	0.608117	19.964560
11747.112000	10130.894125	0.608600	19.967886
11747.113000	10130.620951	0.608839	19.963103
11747.114000	10131.023306	0.608650	19.969618
11747.115000	10131.768201	0.609467	19.953308
11747.116000	10131.751023	0.608970	19.967688
11747.117000	10131.692508	0.609175	19.965689
11747.118000	10131.401921	0.608969	19.968268
11747.119000	10132.112856	0.609153	19.960280
11747.120000	10132.076404	0.609641	19.960860
11747.121000	10131.783024	0.609440	19.954262
11747.122000	10131.951601	0.609152	19.958472
11747.123000	10132.158130	0.609154	19.955177
11747.124000	10132.624423	0.609191	19.955292
11747.125000	10132.906272	0.609155	19.958030
11747.126000	10132.756445	0.609464	19.943368
11747.127000	10132.836931	0.609091	19.947434
11747.128000	10132.615452	0.608487	19.955589
11747.129000	10132.657682	0.608874	19.945268
11747.130000	10133.309569	0.608200	19.954521
11747.131000	10132.847473	0.608309	19.943078
11747.132000	10133.365738	0.608042	19.950699
11747.133000	10133.428285	0.607812	19.961463
11747.134000	10133.176323	0.608034	19.954140
11747.135000	10133.461627	0.607859	19.959754
11747.136000	10133.380513	0.607895	19.959106
11747.137000	10133.351610	0.607517	19.967032
11747.138000	10133.254971	0.607576	19.957946
11747.139000	10133.756359	0.607170	19.966642
11747.140000	10133.976781	0.607080	19.960960
11747.141000	10133.915573	0.607192	19.964835
11747.142000	10133.638202	0.607285	19.970884
11747.143000	10134.052355	0.607470	19.966696
11747.144000	10134.420579	0.608017	19.957557
11747.145000	10134.970950	0.608424	19.962363
11747.146000	10134.875108	0.608324	19.957618
11747.147000	10135.181711	0.608163	19.959159
11747.148000	10134.633715	0.608017	19.954010
11747.149000	10135.111488	0.608665	19.948251
11747.150000	10135.151711	0.608430	19.949883
11747.151000	10135.345741	0.608333	19.945138
11747.152000	10135.005091	0.608069	19.948174
11747.153000	10135.468382	0.608509	19.947457
11747.154000	10135.461348	0.608482	19.952324
11747.155000	10135.407653	0.607720	19.952385
11747.156000	10135.316033	0.607532	19.957893
11747.157000	10135.155473	0.607278	19.963019
11747.158000	10136.419042	0.607156	19.966269
11747.159000	10136.578666	0.606994	19.962844
11747.160000	10135.461609	0.606885	19.958496
11747.161000	10136.489433	0.606801	19.963835
11747.162000	10136.370956	0.607283	19.964621
11747.163000	10136.097528	0.607502	19.973508
11747.164000	10136.302571	0.607561	19.963599
11747.165000	10136.588031	0.607489	19.957824
11747.166000	10136.784438	0.607007	19.961043
11747.167000	10136.422634	0.607262	19.959495
11747.168000	10136.451949	0.607263	19.957816
11747.169000	10136.752452	0.607046	19.948335
11747.170000	10136.790927	0.607050	19.942003
11747.171000	10136.929472	0.607286	19.947869
11747.172000	10136.837225	0.607594	19.945329
11747.173000	10136.710030	0.607221	19.951226
11747.174000	10137.100577	0.607357	19.949959
11747.175000	10137.520385	0.607464	19.957962
11747.176000	10137.059060	0.607823	19.950806
11747.177000	10137.750846	0.607829	19.951698
11747.178000	10137.999444	0.607859	19.953888
11747.179000	10137.616816	0.607892	19.958076
11747.180000	10138.382815	0.607726	19.962035
11747.181000	10138.025475	0.607465	19.973760
11747.182000	10137.898404	0.608181	19.968634
11747.183000	10138.536190	0.608669	19.954216
11747.184000	10138.278712	0.608749	19.954292
11747.185000	10138.425453	0.608355	19.960914
11747.186000	10138.894219	0.607917	19.968947
11747.187000	10138.602995	0.608179	19.964415
11747.188000	10138.976090	0.607889	19.967444
11747.189000	10139.230585	0.607646	19.962806
11747.190000	10139.003692	0.607757	19.965041
11747.191000	10138.642187	0.608066	19.957145
11747.192000	10139.075976	0.608396	19.950890
11747.193000	10139.823024	0.608174	19.954155
11747.194000	10139.316264	0.607754	19.954445
11747.195000	10138.801382	0.607730	19.959640
11747.196000	10139.394079	0.607955	19.953392
11747.197000	10139.516105	0.608079	19.949807
11747.198000	10139.462631	0.608134	19.955680
11747.199000	10139.253553	0.607906	19.960715
11747.200000	10140.066776	0.607782	19.945833
11747.201000	10140.262422	0.607659	19.950531
11747.202000	10140.046437	0.608773	19.943239
11747.203000	10140.230076	0.608591	19.955826
11747.204000	10140.182689	0.608434	19.953751
11747.205000	10140.725829	0.608915	19.951783
11747.206000	10140.139220	0.609296	19.951470
11747.207000	10140.861820	0.609119	19.950051
11747.208000	10140.736038	0.608091	19.958877
11747.209000	10140.406097	0.607933	19.960059
11747.210000	10140.398113	0.607721	19.969488
11747.211000	10140.946697	0.607655	19.974843
11747.212000	10141.297754	0.608177	19.964133
11747.213000	10140.739612	0.608153	19.961021
11747.214000	10141.404867	0.607860	19.972990
11747.215000	10141.337158	0.607885	19.971517
11747.216000	10141.382469	0.608339	19.964880
11747.217000	10141.337494	0.608748	19.964842
11747.218000	10141.732122	0.608919	19.953972
11747.219000	10141.943998	0.608482	19.957466
11747.220000	10141.014798	0.608141	19.957359
11747.221000	10141.657166	0.608660	19.954994
11747.222000	10141.897860	0.608946	19.957168
11747.223000	10142.169983	0.608953	19.952919
11747.224000	10143.083565	0.609288	19.942644
11747.225000	10142.822649	0.609449	19.945245
11747.226000	10142.148090	0.609235	19.949555
11747.227000	10142.524429	0.609252	19.946382
11747.228000	10142.963824	0.609227	19.949959
11747.229000	10142.833267	0.608722	19.967291
11747.230000	10143.204131	0.608526	19.963385
11747.231000	10143.241740	0.607978	19.968687
11747.232000	10143.559784	0.608350	19.963393
11747.233000	10143.322866	0.608825	19.954193
11747.234000	10143.586308	0.608347	19.969160
11747.235000	10143.178585	0.607996	19.965201
11747.236000	10143.438031	0.608154	19.963241
11747.237000	10143.214914	0.608449	19.950173
11747.238000	10143.870070	0.608173	19.949723
11747.239000	10143.692231	0.607458	19.956245
11747.240000	10143.760678	0.607049	19.960044
11747.241000	10144.120334	0.607773	19.947350
11747.242000	10144.080022	0.607886	19.948731
11747.243000	10144.162377	0.607906	19.948426
11747.244000	10143.895845	0.607882	19.962836
11747.245000	10145.146514	0.607950	19.958793
11747.246000	10144.649005	0.608264	19.958656
11747.247000	10145.246543	0.608076	19.958129
11747.248000	10145.244944	0.608143	19.950753
11747.249000	10144.874251	0.607804	19.952805
11747.250000	10145.230403	0.607523	19.960975
11747.251000	10145.328817	0.608229	19.948487
11747.252000	10144.985567	0.608164	19.953232
11747.253000	10145.260418	0.607887	19.951981
11747.254000	10145.504146	0.607598	19.955162
11747.255000	10145.832639	0.607448	19.959335
11747.256000	10145.599107	0.607401	19.960647
11747.257000	10145.204432	0.607263	19.961059
11747.258000	10145.656905	0.607011	19.960662
11747.259000	10145.412792	0.606980	19.962241
11747.260000	10145.241027	0.606779	19.962791
11747.261000	10145.811638	0.606860	19.963797
11747.262000	10146.546345	0.606823	19.963660
11747.263000	10146.321689	0.607498	19.956688
11747.264000	10146.324186	0.607533	19.958778
11747.265000	10146.267082	0.607688	19.964644
11747.266000	10146.165123	0.607602	19.971899
11747.267000	10146.468166	0.608241	19.954880
11747.268000	10146.835499	0.607909	19.957161
11747.269000	10146.686115	0.607646	19.960555
11747.270000	10146.775679	0.607419	19.962256
11747.271000	10146.898754	0.607835	19.961455
11747.272000	10146.916345	0.608590	19.945833
11747.273000	10147.588644	0.608529	19.956604
11747.274000	10147.589567	0.608783	19.947312
11747.275000	10148.179573	0.608888	19.949814
11747.276000	10148.330116	0.608865	19.949784
11747.277000	10148.289710	0.608969	19.945596
11747.278000	10148.034435	0.608439	19.952706
11747.279000	10147.779815	0.608578	19.961837
11747.280000	10148.150422	0.608203	19.959480
11747.281000	10148.367765	0.607939	19.956566
11747.282000	10148.704846	0.607747	19.954391
11747.283000	10147.927434	0.607211	19.964743
11747.284000	10148.258452	0.607354	19.951607
11747.285000	10148.355487	0.607001	19.960723
11747.286000	10148.267705	0.607034	19.962012
11747.287000	10148.136108	0.607286	19.952019
11747.288000	10148.858862	0.606766	19.962294
11747.289000	10148.479770	0.606151	19.965681
11747.290000	10148.675613	0.606593	19.959663
11747.291000	10149.341048	0.607085	19.947259
11747.292000	10149.301865	0.607258	19.950577
11747.293000	10149.685380	0.607236	19.959999
11747.294000	10149.784076	0.608024	19.947183
11747.295000	10149.645952	0.607814	19.957092
11747.296000	10149.866645	0.607889	19.951798
11747.297000	10149.062272	0.607900	19.957595
11747.298000	10150.046703	0.607845	19.960158
11747.299000	10150.390232	0.607748	19.947205
11747.300000	10149.539142	0.606835	19.962363
11747.301000	10149.860240	0.607216	19.960220
11747.302000	10150.066112	0.607616	19.959068
11747.303000	10150.533918	0.607169	19.968878
11747.304000	10150.344033	0.607976	19.956688
11747.305000	10150.561500	0.607502	19.972020
11747.306000	10150.854246	0.607083	19.971052
11747.307000	10150.373325	0.607308	19.966582
11747.308000	10150.215338	0.607593	19.957207
11747.309000	10151.067287	0.607484	19.960837
11747.310000	10150.644678	0.606713	19.971083
11747.311000	10150.554254	0.607135	19.963866
11747.312000	10150.886459	0.607735	19.960936
11747.313000	10151.096243	0.607905	19.953957
11747.314000	10151.196764	0.607930	19.955864
11747.315000	10150.859468	0.608082	19.958465
11747.316000	10151.428906	0.608782	19.944200
11747.317000	10151.502824	0.608598	19.943330
11747.318000	10151.203398	0.608561	19.949723
11747.319000	10151.824775	0.608820	19.951432
11747.320000	10151.475883	0.608849	19.944490
11747.321000	10151.541572	0.608761	19.952995
11747.322000	10151.892810	0.609482	19.940645
11747.323000	10151.870232	0.608940	19.962142
11747.324000	10152.414377	0.609497	19.951248
11747.325000	10152.010463	0.609605	19.944688
11747.326000	10152.843109	0.609202	19.958053
11747.327000	10152.922597	0.609326	19.961661
11747.328000	10152.487667	0.609093	19.962859
11747.329000	10152.385619	0.608517	19.971364
11747.330000	10152.716241	0.608702	19.966963
11747.331000	10152.846536	0.609189	19.968679
11747.332000	10152.940594	0.608857	19.974096
11747.333000	10153.134681	0.608538	19.982533
11747.334000	10153.756875	0.608807	19.964187
11747.335000	10153.468305	0.608993	19.957878
11747.336000	10153.460341	0.609453	19.954193
11747.337000	10153.462949	0.609416	19.955589
11747.338000	10153.078784	0.608636	19.967367
11747.339000	10153.695846	0.608825	19.960143
11747.340000	10153.705667	0.608899	19.955330
11747.341000	10154.308286	0.608813	19.956863
11747.342000	10154.774926	0.608516	19.960837
11747.343000	10154.301172	0.608613	19.963957
11747.344000	10154.026013	0.609246	19.948739
11747.345000	10154.573943	0.609200	19.956741
11747.346000	10154.868357	0.609250	19.951424
11747.347000	10154.579609	0.609039	19.956222
11747.348000	10154.697835	0.608743	19.950471
11747.349000	10155.108786	0.608562	19.945535
11747.350000	10155.398105	0.608270	19.943551
11747.351000	10155.363990	0.607943	19.952835
11747.352000	10155.378478	0.608086	19.955856
11747.353000	10155.248047	0.608080	19.954758
11747.354000	10155.251026	0.607951	19.950066
11747.355000	10156.115682	0.608128	19.955833
11747.356000	10155.988913	0.607731	19.958839
11747.357000	10156.089599	0.607479	19.956863
11747.358000	10155.953198	0.607397	19.949349
11747.359000	10156.148716	0.607158	19.956421
11747.360000	10156.292096	0.607346	19.950081
11747.361000	10156.409455	0.606940	19.954796
11747.362000	10156.010963	0.606781	19.962241
11747.363000	10155.965912	0.606251	19.965323
11747.364000	10156.136005	0.606531	19.961524
11747.365000	10156.689994	0.606741	19.956093
11747.366000	10156.765132	0.606517	19.961425
11747.367000	10156.620089	0.606439	19.959037
11747.368000	10156.485897	0.605664	19.968733
11747.369000	10157.088672	0.605701	19.970602
11747.370000	10157.077162	0.606406	19.956611
11747.371000	10156.673397	0.606444	19.963187
11747.372000	10156.892769	0.606661	19.961326
11747.373000	10157.379760	0.606713	19.964080
11747.374000	10157.613570	0.607586	19.948403
11747.375000	10157.422578	0.607535	19.945108
11747.376000	10157.382682	0.607346	19.954742
11747.377000	10157.490438	0.607108	19.958724
11747.378000	10157.514419	0.607470	19.953293
11747.379000	10157.744925	0.607933	19.937342
11747.380000	10158.259473	0.607387	19.946534
11747.381000	10157.955507	0.607030	19.953804
11747.382000	10158.303868	0.607855	19.947366
11747.383000	10157.803237	0.608212	19.950837
11747.384000	10158.517785	0.608617	19.942232
11747.385000	10158.709686	0.608517	19.947045
11747.386000	10158.430241	0.608308	19.952133
11747.387000	10158.273637	0.608035	19.964880
11747.388000	10158.653740	0.607842	19.960250
11747.389000	10158.927739	0.607624	19.965430
11747.390000	10158.818107	0.607516	19.970289
11747.391000	10159.046767	0.607500	19.972951
11747.392000	10159.096430	0.607837	19.967001
11747.393000	10159.494844	0.608025	19.970053
11747.394000	10159.574809	0.607935	19.976491
11747.395000	10159.721946	0.608169	19.979153
11747.396000	10159.617454	0.608089	19.970633
11747.397000	10160.047606	0.608355	19.961829
11747.398000	10159.790086	0.608321	19.961707
11747.399000	10159.481746	0.608111	19.957855
11747.400000	10160.001832	0.608272	19.949067
11747.401000	10159.866539	0.607664	19.952797
11747.402000	10160.312062	0.607868	19.951783
11747.403000	10159.776797	0.607967	19.949181
11747.404000	10160.604242	0.608210	19.942476
11747.405000	10160.804531	0.608533	19.944116
11747.406000	10160.240271	0.608094	19.950730
11747.407000	10160.968690	0.607760	19.963462
11747.408000	10160.549258	0.607905	19.955925
11747.409000	10160.086065	0.607925	19.952393
11747.410000	10160.695794	0.607674	19.954826
11747.411000	10160.854798	0.607878	19.953087
11747.412000	10161.309667	0.607912	19.961471
11747.413000	10161.419757	0.608043	19.957595
11747.414000	10161.734903	0.608228	19.959396
11747.415000	10161.471543	0.608004	19.960494
11747.416000	10161.439262	0.608392	19.958785
11747.417000	10161.765530	0.608419	19.959762
11747.418000	10161.796495	0.608449	19.962767
11747.419000	10160.987341	0.608094	19.957618
11747.420000	10161.942615	0.607980	19.956772
11747.421000	10161.908893	0.607968	19.957016
11747.422000	10161.949399	0.607777	19.962561
11747.423000	10162.147278	0.607905	19.964369
11747.424000	10162.291782	0.607891	19.962104
11747.425000	10162.591292	0.607837	19.967566
11747.426000	10161.842245	0.608523	19.962943
11747.427000	10162.649505	0.608721	19.964240
11747.428000	10162.621122	0.608263	19.962089
11747.429000	10162.476507	0.608023	19.961867
11747.430000	10162.340905	0.608287	19.959434
11747.431000	10162.481844	0.608504	19.953842
11747.432000	10163.144600	0.608322	19.956962
11747.433000	10163.364258	0.608750	19.955467
11747.434000	10163.033783	0.609018	19.953362
11747.435000	10163.348235	0.608938	19.952309
11747.436000	10163.417567	0.609087	19.950226
11747.437000	10163.909585	0.609663	19.951134
11747.438000	10163.568399	0.609747	19.952446
11747.439000	10163.635107	0.609292	19.953629
11747.440000	10163.787908	0.609006	19.952225
11747.441000	10164.092614	0.609436	19.948655
11747.442000	10164.411789	0.609405	19.960967
11747.443000	10164.062921	0.609037	19.966048
11747.444000	10163.972255	0.608640	19.969992
11747.445000	10164.702920	0.609143	19.960601
11747.446000	10164.381731	0.609062	19.964324
11747.447000	10164.546772	0.608532	19.972265
11747.448000	10164.671015	0.608338	19.967116
11747.449000	10165.148915	0.608291	19.969228
11747.450000	10165.215162	0.608198	19.965720
11747.451000	10165.117645	0.608413	19.961371
11747.452000	10165.590520	0.608342	19.965743
11747.453000	10165.594495	0.609162	19.952271
11747.454000	10165.778335	0.608575	19.963172
11747.455000	10165.588714	0.609138	19.943025
11747.456000	10165.670365	0.608693	19.950371
11747.457000	10165.943267	0.608521	19.946626
11747.458000	10166.406676	0.608136	19.949624
11747.459000	10166.208219	0.607664	19.949494
11747.460000	10165.574831	0.607097	19.959861
11747.461000	10165.845141	0.607439	19.955429
11747.462000	10165.930098	0.607836	19.950364
11747.463000	10166.207019	0.607799	19.947648
11747.464000	10165.988218	0.607616	19.950066
11747.465000	10166.562150	0.606678	19.962058
11747.466000	10166.368940	0.606870	19.961310
11747.467000	10166.618799	0.607387	19.956795
11747.468000	10166.198695	0.607135	19.962150
11747.469000	10166.471847	0.607112	19.962355
11747.470000	10166.631526	0.607068	19.959472
11747.471000	10166.632182	0.607524	19.956100
11747.472000	10167.331900	0.607905	19.952645
11747.473000	10167.133366	0.608138	19.955673
11747.474000	10167.193761	0.607708	19.973081
11747.475000	10167.304900	0.608352	19.965239
11747.476000	10167.201312	0.609136	19.947244
11747.477000	10167.429730	0.608817	19.958000
11747.478000	10167.432648	0.608626	19.957855
11747.479000	10167.617433	0.608683	19.956115
11747.480000	10167.840978	0.607972	19.966757
11747.481000	10167.740082	0.608203	19.961616
11747.482000	10167.693338	0.609340	19.941064
11747.483000	10168.459321	0.609136	19.956161
11747.484000	10167.941517	0.609516	19.951027
11747.485000	10168.145351	0.609209	19.958701
11747.486000	10168.260489	0.609048	19.963897
11747.487000	10167.668027	0.609438	19.957298
11747.488000	10168.567922	0.609474	19.952233
11747.489000	10168.244152	0.609200	19.949196
11747.490000	10168.407901	0.608835	19.964270
11747.491000	10168.846587	0.608960	19.963279
11747.492000	10168.937951	0.609569	19.966399
11747.493000	10169.294345	0.609844	19.959174
11747.494000	10169.696584	0.609715	19.961806
11747.495000	10169.254566	0.609871	19.964621
11747.496000	10169.927636	0.610067	19.965087
11747.497000	10169.817242	0.610145	19.961234
11747.498000	10168.864235	0.609923	19.961577
11747.499000	10170.210741	0.609799	19.950570
11747.500000	10170.536631	0.608982	19.955124
11747.501000	10169.996707	0.609109	19.950920
11747.502000	10170.299336	0.609318	19.953644
11747.503000	10170.262235	0.609294	19.954971
11747.504000	10170.799372	0.608920	19.950349
11747.505000	10170.793658	0.608976	19.956283
11747.506000	10170.465102	0.609105	19.953331
11747.507000	10170.821473	0.608269	19.957771
11747.508000	10170.587801	0.607697	19.962020
11747.509000	10170.447033	0.607892	19.960448
11747.510000	10171.076597	0.607434	19.969252
11747.511000	10170.981303	0.606980	19.967939
11747.512000	10171.048061	0.607300	19.954567
11747.513000	10171.112580	0.607556	19.959815
11747.514000	10171.097843	0.607765	19.950333
11747.515000	10171.434187	0.607719	19.954132
11747.516000	10171.554115	0.607989	19.949288
11747.517000	10171.802866	0.608210	19.946618
11747.518000	10171.689908	0.607872	19.948754
11747.519000	10172.623651	0.607832	19.945741
11747.520000	10172.005944	0.607743	19.950509
11747.521000	10171.939264	0.607945	19.948166
11747.522000	10172.125017	0.607630	19.965087
11747.523000	10172.295409	0.607855	19.957504
11747.524000	10172.320399	0.607982	19.955322
11747.525000	10172.643384	0.607517	19.968611
11747.526000	10172.427804	0.607210	19.967581
11747.527000	10172.611970	0.607743	19.951493
11747.528000	10172.804431	0.607086	19.965880
11747.529000	10172.843526	0.606626	19.974042
11747.530000	10173.086113	0.607138	19.962355
11747.531000	10172.953040	0.607430	19.956253
11747.532000	10172.929018	0.607490	19.956795
11747.533000	10172.815251	0.607449	19.963492
11747.534000	10173.091576	0.607758	19.962607
11747.535000	10173.332693	0.607870	19.962325
11747.536000	10172.771311	0.607742	19.951348
11747.537000	10173.530643	0.608056	19.943368
11747.538000	10173.882078	0.607579	19.950875
11747.539000	10173.595516	0.607655	19.956100
11747.540000	10173.447381	0.607988	19.950165
11747.541000	10173.532411	0.607896	19.958144
11747.542000	10174.091307	0.608033	19.964621
11747.543000	10173.994450	0.608790	19.957031
11747.544000	10174.735006	0.608920	19.951996
11747.545000	10174.343592	0.608625	19.952477
11747.546000	10174.750620	0.608696	19.952126
11747.547000	10174.883075	0.608871	19.959525
11747.548000	10174.768038	0.609426	19.956192
11747.549000	10174.778931	0.608586	19.963988
11747.550000	10175.403159	0.608360	19.958412
11747.551000	10175.556649	0.608454	19.963988
11747.552000	10175.229697	0.608717	19.966734
11747.553000	10176.012836	0.608412	19.961806
11747.554000	10175.713677	0.608594	19.962378
11747.555000	10175.826569	0.608504	19.958450
11747.556000	10175.745674	0.608103	19.962111
11747.557000	10175.829846	0.608246	19.951386
11747.558000	10176.250331	0.607714	19.959693
11747.559000	10175.979844	0.606991	19.963340
11747.560000	10176.557477	0.606944	19.951660
11747.561000	10175.918246	0.606801	19.953018
11747.562000	10175.888057	0.607084	19.944284
11747.563000	10175.995351	0.607574	19.944932
11747.564000	10176.600763	0.607434	19.943368
11747.565000	10176.449053	0.606719	19.952309
11747.566000	10176.447318	0.606474	19.959266
11747.567000	10176.903845	0.606532	19.952599
11747.568000	10177.192412	0.606591	19.946916
11747.569000	10176.513414	0.606202	19.948754
11747.570000	10177.271749	0.606648	19.954796
11747.571000	10176.849913	0.606315	19.964194
11747.572000	10177.215272	0.606815	19.952545
11747.573000	10177.055978	0.607164	19.952622
11747.574000	10177.055387	0.607238	19.953964
11747.575000	10177.906602	0.606552	19.962523
11747.576000	10177.784865	0.606914	19.961395
11747.577000	10177.833853	0.607275	19.950036
11747.578000	10177.834606	0.607010	19.965811
11747.579000	10177.767697	0.606700	19.964545
11747.580000	10178.349079	0.607385	19.957717
11747.581000	10177.957639	0.608601	19.949265
11747.582000	10178.275368	0.609997	19.951188
11747.583000	10178.450703	0.610786	19.959815
11747.584000	10178.355429	0.610881	19.974607
11747.585000	10179.156809	0.612451	19.964072
11747.586000	10179.764624	0.612913	19.967306
11747.587000	10179.591312	0.613726	19.959663
11747.588000	10179.496818	0.613993	19.964499
11747.589000	10180.068562	0.614564	19.969610
11747.590000	10180.488765	0.614815	19.975591
11747.591000	10180.453888	0.616215	19.966345
11747.592000	10180.507212	0.617507	19.972730
11747.593000	10181.256204	0.618369	19.963423
11747.594000	10182.024761	0.618231	19.968107
11747.595000	10181.681378	0.618326	19.974469
11747.596000	10182.480299	0.618505	19.978970
11747.597000	10182.417279	0.618753	19.963187
11747.598000	10183.055282	0.617652	19.975820
11747.599000	10183.261831	0.617478	19.971929
11747.600000	10183.852485	0.617687	19.961425
11747.601000	10184.408627	0.617725	19.963530
11747.602000	10184.412344	0.618070	19.961310
11747.603000	10184.133484	0.618636	19.957123
11747.604000	10185.807817	0.618369	19.943132
11747.605000	10185.676347	0.617699	19.948403
11747.606000	10185.891904	0.616776	19.952080
11747.607000	10186.269072	0.616105	19.950722
11747.608000	10186.789289	0.614877	19.951752
11747.609000	10186.428497	0.614071	19.943948
11747.610000	10187.261722	0.613506	19.945512
11747.611000	10186.963160	0.613168	19.951355
11747.612000	10187.498502	0.613484	19.941423
11747.613000	10188.336312	0.613204	19.950127
11747.614000	10188.175076	0.612949	19.949196
11747.615000	10189.359655	0.612579	19.944215
11747.616000	10189.344490	0.612666	19.940973
11747.617000	10189.320979	0.611909	19.960975
11747.618000	10189.543541	0.611249	19.960540
11747.619000	10189.559071	0.610523	19.955399
11747.620000	10189.626618	0.610137	19.957870
11747.621000	10189.519095	0.610750	19.946984
11747.622000	10190.499397	0.610704	19.959182
11747.623000	10190.977799	0.611014	19.959709
11747.624000	10191.092612	0.611044	19.947976
11747.625000	10191.430889	0.611142	19.944139
11747.626000	10192.283879	0.611350	19.940324
11747.627000	10192.250540	0.610553	19.954666
11747.628000	10192.476007	0.610490	19.955520
11747.629000	10192.551451	0.610555	19.941301
11747.630000	10193.054859	0.610124	19.944322
11747.631000	10193.380759	0.610253	19.955467
11747.632000	10194.196787	0.611297	19.951470
11747.633000	10194.627176	0.611670	19.935168
11747.634000	10194.729699	0.610660	19.946145
11747.635000	10194.752272	0.610524	19.953774
11747.636000	10195.218410	0.611193	19.943712
11747.637000	10196.147622	0.610502	19.949883
11747.638000	10196.002854	0.609556	19.944627
11747.639000	10196.269006	0.608629	19.947694
11747.640000	10195.873204	0.607886	19.953613
11747.641000	10196.688561	0.608147	19.961242
11747.642000	10196.899518	0.609184	19.962905
11747.643000	10197.553994	0.609640	19.942308
11747.644000	10198.347158	0.608842	19.940630
11747.645000	10198.241163	0.608965	19.942048
11747.646000	10198.554738	0.608758	19.953995
11747.647000	10199.024021	0.608803	19.943941
11747.648000	10199.143269	0.608234	19.944154
11747.649000	10199.011973	0.607474	19.936983
11747.650000	10199.007465	0.607610	19.929805
11747.651000	10199.281138	0.607254	19.944124
11747.652000	10199.827133	0.607996	19.941606
11747.653000	10200.398659	0.608319	19.939173
11747.654000	10200.901496	0.608266	19.941507
11747.655000	10201.140971	0.607629	19.955734
11747.656000	10201.143742	0.607971	19.943628
11747.657000	10201.248075	0.607845	19.952034
11747.658000	10201.826992	0.607900	19.942850
11747.659000	10201.578378	0.607070	19.949562
11747.660000	10202.070911	0.607000	19.953568
11747.661000	10202.265101	0.607460	19.951271
11747.662000	10202.847818	0.608580	19.937494
11747.663000	10202.809938	0.609295	19.933818
11747.664000	10203.156457	0.609058	19.942316
11747.665000	10203.569053	0.609165	19.940485
11747.666000	10204.100598	0.609075	19.943674
11747.667000	10204.573344	0.608947	19.946511
11747.668000	10204.789823	0.608509	19.945764
11747.669000	10204.849439	0.607932	19.946023
11747.670000	10204.442113	0.607929	19.948769
11747.671000	10205.408915	0.608930	19.935405
11747.672000	10205.978439	0.609483	19.950180
11747.673000	10205.632570	0.609499	19.954552
11747.674000	10206.414857	0.609146	19.947663
11747.675000	10206.369680	0.609331	19.941675
11747.676000	10206.708699	0.609687	19.937433
11747.677000	10207.533073	0.609202	19.945695
11747.678000	10207.697880	0.608226	19.948060
11747.679000	10208.203896	0.607494	19.948777
11747.680000	10208.334496	0.607809	19.930202
11747.681000	10208.661081	0.608587	19.934146
11747.682000	10209.007686	0.609351	19.934596
11747.683000	10210.221319	0.608927	19.948151
11747.684000	10209.870534	0.609366	19.933184
11747.685000	10210.533402	0.608592	19.939775
11747.686000	10210.746298	0.608258	19.947823
11747.687000	10210.793647	0.608085	19.933985
11747.688000	10211.000529	0.607445	19.936190
11747.689000	10211.201422	0.606854	19.935771
11747.690000	10211.435879	0.606023	19.937517
11747.691000	10211.757643	0.606200	19.935786
11747.692000	10212.472678	0.606946	19.936587
11747.693000	10212.178087	0.607437	19.937144
11747.694000	10212.631717	0.606914	19.937647
11747.695000	10213.109438	0.606651	19.946908
11747.696000	10213.430634	0.606689	19.951523
11747.697000	10213.727884	0.607355	19.926540
11747.698000	10213.371746	0.606346	19.932925
11747.699000	10213.961757	0.605594	19.942239
11747.700000	10214.596809	0.605533	19.946710
11747.701000	10214.706545	0.606379	19.933940
11747.702000	10215.166185	0.607348	19.937052
11747.703000	10215.008594	0.607210	19.945833
11747.704000	10215.951249	0.607890	19.933627
11747.705000	10216.383613	0.608230	19.932712
11747.706000	10216.318768	0.607825	19.935992
11747.707000	10216.226200	0.607398	19.937869
11747.708000	10216.662756	0.606942	19.938669
11747.709000	10216.956088	0.606511	19.941736
11747.710000	10217.049349	0.606466	19.937624
11747.711000	10217.839304	0.607122	19.936464
11747.712000	10217.513927	0.607422	19.942682
11747.713000	10218.392275	0.607851	19.949265
11747.714000	10218.456685	0.608418	19.936930
11747.715000	10218.964316	0.608271	19.939447
11747.716000	10219.238898	0.608130	19.943285
11747.717000	10219.787750	0.607610	19.951500
11747.718000	10219.985825	0.607010	19.955269
11747.719000	10219.573180	0.606877	19.947564
11747.720000	10219.959657	0.606959	19.940165
11747.721000	10220.907051	0.607547	19.949952
11747.722000	10220.721806	0.608619	19.950074
11747.723000	10221.261881	0.609000	19.937090
11747.724000	10221.642037	0.608408	19.933612
11747.725000	10221.467150	0.608348	19.934535
11747.726000	10222.418911	0.608921	19.931247
11747.727000	10222.568125	0.608514	19.930087
11747.728000	10222.428091	0.607809	19.930392
11747.729000	10222.887420	0.606775	19.936373
11747.730000	10222.827848	0.607028	19.939295
11747.731000	10223.377776	0.607388	19.944871
11747.732000	10224.205755	0.608496	19.941263
11747.733000	10224.325010	0.608460	19.944291
11747.734000	10224.727770	0.607860	19.950211
11747.735000	10224.895117	0.607815	19.957466
11747.736000	10225.425794	0.608228	19.950524
11747.737000	10225.601330	0.607916	19.952072
11747.738000	10225.664905	0.607485	19.944612
11747.739000	10226.330076	0.607045	19.938600
11747.740000	10226.130962	0.606482	19.944268
11747.741000	10226.453935	0.607258	19.943109
11747.742000	10227.215979	0.608645	19.932300
11747.743000	10227.124306	0.608672	19.928783
11747.744000	10227.796028	0.608315	19.927235
11747.745000	10228.376903	0.608303	19.929180
11747.746000	10227.967388	0.608323	19.932239
11747.747000	10228.931257	0.607818	19.931018
11747.748000	10229.596270	0.607031	19.929546
11747.749000	10228.529960	0.606468	19.941240
11747.750000	10229.156432	0.606223	19.940127
11747.751000	10230.110414	0.607048	19.934878
11747.752000	10229.743624	0.607555	19.939455
11747.753000	10230.056049	0.607544	19.947541
11747.754000	10230.187057	0.607234	19.952782
11747.755000	10230.481470	0.607321	19.945252
11747.756000	10231.202822	0.607469	19.951630
11747.757000	10231.333457	0.607663	19.933535
11747.758000	10231.662354	0.606392	19.946039
11747.759000	10231.836948	0.605775	19.951622
11747.760000	10231.958124	0.606412	19.942507
11747.761000	10232.532785	0.607621	19.933261
11747.762000	10233.051745	0.608247	19.937556
11747.763000	10233.425227	0.608636	19.940401
11747.764000	10233.637661	0.608180	19.945245
11747.765000	10233.976973	0.608418	19.945687
11747.766000	10233.928080	0.608720	19.942667
11747.767000	10234.635778	0.608420	19.940775
11747.768000	10234.849482	0.607355	19.943620
11747.769000	10235.226187	0.607053	19.934832
11747.770000	10234.927403	0.607289	19.928440
11747.771000	10235.492494	0.607911	19.923885
11747.772000	10236.076425	0.608336	19.930805
11747.773000	10236.752526	0.608167	19.936312
11747.774000	10236.935561	0.608147	19.934451
11747.775000	10237.353305	0.608229	19.941332
11747.776000	10237.163381	0.607794	19.942659
11747.777000	10237.554135	0.607971	19.930530
11747.778000	10237.717803	0.606953	19.933345
11747.779000	10237.936193	0.605665	19.960593
11747.780000	10238.104690	0.605487	19.955269
11747.781000	10238.978778	0.605850	19.943269
11747.782000	10239.318892	0.606971	19.933177
11747.783000	10239.994847	0.607236	19.944856
11747.784000	10239.500323	0.607550	19.942758
11747.785000	10239.706416	0.607456	19.936381
11747.786000	10240.125315	0.607725	19.929073
11747.787000	10240.052937	0.607530	19.936167
11747.788000	10240.758723	0.606650	19.939333
11747.789000	10241.004383	0.605866	19.939951
11747.790000	10241.598438	0.606082	19.923344
11747.791000	10241.382327	0.606756	19.931598
11747.792000	10241.413797	0.607608	19.946572
11747.793000	10241.821969	0.608231	19.933985
11747.794000	10243.219568	0.608428	19.932178
11747.795000	10243.244236	0.608135	19.938975
11747.796000	10243.088961	0.608120	19.943094
11747.797000	10243.775719	0.607456	19.935717
11747.798000	10243.491013	0.607066	19.937945
11747.799000	10243.492084	0.607178	19.943681
11747.800000	10244.260467	0.607227	19.931461
11747.801000	10244.695373	0.606570	19.946618
11747.802000	10245.010602	0.607416	19.948022
11747.803000	10245.958962	0.607916	19.950761
11747.804000	10245.518045	0.607939	19.944528
11747.805000	10246.111975	0.607691	19.945756
11747.806000	10246.759401	0.607961	19.944612
11747.807000	10246.578363	0.608175	19.937617
11747.808000	10246.745441	0.606818	19.943895
11747.809000	10247.234285	0.606507	19.936304
11747.810000	10248.443729	0.606562	19.935786
11747.811000	10247.843682	0.607269	19.929469
11747.812000	10248.052053	0.607900	19.926952
11747.813000	10248.539263	0.607655	19.928935
11747.814000	10248.976585	0.607552	19.924702
11747.815000	10248.926795	0.607290	19.942117
11747.816000	10248.935744	0.607232	19.942567
11747.817000	10248.931703	0.606260	19.943735
11747.818000	10249.746315	0.606027	19.929721
11747.819000	10249.348072	0.605852	19.932582
11747.820000	10250.014023	0.605721	19.938936
11747.821000	10250.340199	0.606343	19.930805
11747.822000	10251.031884	0.607183	19.931186
11747.823000	10251.831243	0.608305	19.926952
11747.824000	10251.294383	0.608426	19.923931
11747.825000	10252.567797	0.607973	19.934603
11747.826000	10252.407130	0.607849	19.942972
11747.827000	10252.157178	0.608180	19.943483
11747.828000	10252.862594	0.607509	19.936014
11747.829000	10252.755770	0.606652	19.936289
11747.830000	10253.040512	0.606423	19.937975
11747.831000	10253.438480	0.606989	19.939265
11747.832000	10253.718620	0.607376	19.941377
11747.833000	10254.891518	0.607758	19.940813
11747.834000	10254.976209	0.607393	19.947488
11747.835000	10255.122616	0.607533	19.945161
11747.836000	10254.747728	0.607555	19.955780
11747.837000	10255.263137	0.607516	19.947930
11747.838000	10255.629735	0.607037	19.940523
11747.839000	10256.191733	0.606361	19.946366
11747.840000	10256.417882	0.605152	19.955742
11747.841000	10256.556073	0.605560	19.943208
11747.842000	10257.119314	0.606666	19.947969
11747.843000	10256.956487	0.608194	19.934954
11747.844000	10257.228112	0.608027	19.931689
11747.845000	10258.127954	0.607840	19.931438
11747.846000	10258.179707	0.607467	19.936358
11747.847000	10258.428775	0.607516	19.939173
11747.848000	10258.658653	0.607432	19.919659
11747.849000	10258.337835	0.606934	19.915052
11747.850000	10259.077691	0.606557	19.935458
11747.851000	10259.310072	0.607519	19.932475
11747.852000	10260.048379	0.608035	19.932780
11747.853000	10260.369965	0.608271	19.928203
11747.854000	10260.074899	0.608346	19.937182
11747.855000	10260.882118	0.607961	19.953675
11747.856000	10261.066014	0.608291	19.940439
11747.857000	10261.489677	0.608087	19.938852
11747.858000	10261.796770	0.607387	19.938952
11747.859000	10261.918308	0.606828	19.936190
11747.860000	10262.799310	0.606593	19.946382
11747.861000	10262.520728	0.607167	19.955650
11747.862000	10262.747722	0.608375	19.935847
11747.863000	10263.708097	0.608258	19.948388
11747.864000	10264.425858	0.607769	19.952164
11747.865000	10264.777970	0.608011	19.942697
11747.866000	10264.979423	0.608015	19.939867
11747.867000	10265.294415	0.607552	19.932727
11747.868000	10265.385278	0.606750	19.934306
11747.869000	10265.554872	0.606215	19.936671
11747.870000	10266.121060	0.605797	19.935412
11747.871000	10266.271050	0.605869	19.935527
11747.872000	10266.335232	0.606868	19.921513
11747.873000	10266.843413	0.606663	19.932124
11747.874000	10267.271622	0.606705	19.924191
11747.875000	10267.128662	0.606442	19.921353
11747.876000	10267.353434	0.606158	19.930308
11747.877000	10267.820074	0.605847	19.921330
11747.878000	10267.731523	0.605071	19.925716
11747.879000	10267.970135	0.604643	19.930537
11747.880000	10268.162513	0.604571	19.931232
11747.881000	10268.078386	0.604892	19.934168
11747.882000	10268.796009	0.606135	19.936762
11747.883000	10269.133518	0.606763	19.932772
11747.884000	10269.248205	0.607025	19.928272
11747.885000	10269.859455	0.606851	19.944299
11747.886000	10269.393423	0.607019	19.944757
11747.887000	10270.201938	0.606841	19.946877
11747.888000	10270.927456	0.607052	19.938685
11747.889000	10270.629262	0.606079	19.951905
11747.890000	10271.466046	0.605834	19.959090
11747.891000	10271.470826	0.606741	19.952217
11747.892000	10271.754864	0.608041	19.949693
11747.893000	10272.530094	0.608747	19.943285
11747.894000	10272.411790	0.608788	19.941103
11747.895000	10273.139741	0.608341	19.944864
11747.896000	10273.598571	0.608019	19.948571
11747.897000	10273.670791	0.608299	19.931346
11747.898000	10274.283859	0.607641	19.931064
11747.899000	10273.969788	0.606752	19.937945
11747.900000	10273.942186	0.606561	19.937586
11747.901000	10275.098771	0.606973	19.926723
11747.902000	10275.351268	0.607573	19.924168
11747.903000	10275.953032	0.608318	19.917714
11747.904000	10275.459814	0.607585	19.925007
11747.905000	10275.674804	0.607445	19.933055
11747.906000	10276.788740	0.607297	19.937456
11747.907000	10277.065763	0.607471	19.928760
11747.908000	10276.789239	0.606096	19.940889
11747.909000	10277.556668	0.605074	19.945977
11747.910000	10277.487727	0.605786	19.930949
11747.911000	10277.797147	0.606614	19.933848
11747.912000	10277.836082	0.607483	19.944574
11747.913000	10278.179423	0.606994	19.946084
11747.914000	10278.718446	0.606807	19.935336
11747.915000	10279.055592	0.607080	19.934733
11747.916000	10278.625758	0.607121	19.934802
11747.917000	10278.727750	0.606315	19.938913
11747.918000	10279.185724	0.606034	19.933253
11747.919000	10279.610179	0.605880	19.938097
11747.920000	10280.555509	0.605667	19.945939
11747.921000	10281.158906	0.606021	19.938570
11747.922000	10281.131109	0.606566	19.949387
11747.923000	10280.757395	0.607874	19.941011
11747.924000	10281.308375	0.608300	19.946404
11747.925000	10282.464432	0.608790	19.937251
11747.926000	10282.390871	0.608359	19.934306
11747.927000	10282.813582	0.607750	19.943010
11747.928000	10282.825739	0.606440	19.950226
11747.929000	10283.004793	0.606678	19.931941
11747.930000	10283.505776	0.606621	19.943765
11747.931000	10284.024625	0.607205	19.938540
11747.932000	10284.732390	0.608067	19.929721
11747.933000	10284.572080	0.607674	19.936320
11747.934000	10284.906214	0.607719	19.929340
11747.935000	10285.021784	0.607580	19.934115
11747.936000	10285.190235	0.607705	19.925312
11747.937000	10285.965817	0.607198	19.927753
11747.938000	10285.631560	0.606618	19.928058
11747.939000	10285.926468	0.605412	19.937426
11747.940000	10286.921072	0.605422	19.932315
11747.941000	10286.396373	0.606305	19.928485
11747.942000	10287.126872	0.606456	19.943170
11747.943000	10287.869948	0.606983	19.939737
11747.944000	10287.506440	0.606355	19.944208
11747.945000	10288.177401	0.606575	19.949921
11747.946000	10288.259189	0.607088	19.936167
11747.947000	10288.922091	0.606570	19.943285
11747.948000	10289.192774	0.605582	19.948609
11747.949000	10289.039060	0.605190	19.954414
11747.950000	10289.428696	0.605749	19.940645
11747.951000	10289.727138	0.606071	19.941766
11747.952000	10289.752809	0.607193	19.932910
11747.953000	10290.138161	0.607334	19.939013
11747.954000	10290.665662	0.606926	19.946717
11747.955000	10290.677678	0.607143	19.929134
11747.956000	10291.027579	0.607124	19.932300
11747.957000	10291.420600	0.606987	19.932803
11747.958000	10292.046478	0.606226	19.935015
11747.959000	10291.929163	0.605901	19.933444
11747.960000	10292.032594	0.606364	19.932902
11747.961000	10292.270391	0.607586	19.919202
11747.962000	10292.482654	0.608107	19.926799
11747.963000	10292.769570	0.608339	19.923710
11747.964000	10293.292510	0.608291	19.929263
11747.965000	10293.990138	0.607106	19.949502
11747.966000	10294.030480	0.607499	19.950814
11747.967000	10294.673743	0.607599	19.943406
11747.968000	10294.872615	0.606962	19.949006
11747.969000	10294.256701	0.606410	19.950730
11747.970000	10295.441117	0.606291	19.953438
11747.971000	10295.760952	0.606686	19.952965
11747.972000	10296.238189	0.607712	19.943468
11747.973000	10296.350824	0.607499	19.952622
11747.974000	10296.812991	0.607285	19.947663
11747.975000	10297.288573	0.607612	19.937136
11747.976000	10297.872175	0.607712	19.941995
11747.977000	10297.802675	0.607661	19.936449
11747.978000	10297.560532	0.606843	19.931598
11747.979000	10298.027143	0.606311	19.926426
11747.980000	10298.222151	0.605745	19.939569
11747.981000	10299.023351	0.606695	19.919682
11747.982000	10299.267834	0.607009	19.924534
11747.983000	10299.122261	0.606921	19.923733
11747.984000	10299.941953	0.607359	19.918942
11747.985000	10300.497539	0.607238	19.926586
11747.986000	10300.088021	0.607406	19.922314
11747.987000	10300.798234	0.606489	19.935938
11747.988000	10300.788621	0.606266	19.924191
11747.989000	10301.138069	0.605883	19.928584
11747.990000	10301.679923	0.605344	19.938952
11747.991000	10301.749666	0.605586	19.940546
11747.992000	10302.048349	0.606361	19.941576
11747.993000	10302.381888	0.606309	19.951462
11747.994000	10302.272083	0.606575	19.948098
11747.995000	10303.138005	0.606761	19.939028
11747.996000	10303.540804	0.606820	19.939699
11747.997000	10303.672191	0.606303	19.950021
11747.998000	10303.621029	0.605861	19.941286
11747.999000	10304.269163	0.605725	19.938738
11748.000000	10304.479969	0.605709	19.936366
11748.001000	10304.445641	0.606606	19.934359
11748.002000	10305.150481	0.607130	19.935618
11748.003000	10305.723888	0.607188	19.935999
11748.004000	10305.290236	0.607328	19.924267
11748.005000	10306.328854	0.607433	19.932925
11748.006000	10306.468549	0.607147	19.940493
11748.007000	10306.198328	0.607047	19.937433
11748.008000	10307.043624	0.606354	19.937708
11748.009000	10307.770937	0.606019	19.931636
11748.010000	10307.538979	0.605616	19.935443
11748.011000	10307.612740	0.606112	19.935153
11748.012000	10308.465892	0.606813	19.939387
11748.013000	10308.703813	0.607004	19.943086
11748.014000	10308.961167	0.606925	19.945489
11748.015000	10308.976853	0.606911	19.934176
11748.016000	10308.907408	0.606856	19.935236
11748.017000	10309.678860	0.606187	19.938608
11748.018000	10310.057980	0.605910	19.926761
11748.019000	10310.090201	0.605649	19.928256
11748.020000	10310.491690	0.605523	19.927677
11748.021000	10310.293650	0.605701	19.933284
11748.022000	10310.661586	0.607291	19.933757
11748.023000	10311.082252	0.607358	19.940676
11748.024000	10311.924816	0.607308	19.936076
11748.025000	10312.220615	0.607009	19.935068
11748.026000	10312.717607	0.607131	19.935534
11748.027000	10312.364006	0.606573	19.947205
11748.028000	10312.557973	0.606696	19.934237
11748.029000	10313.115140	0.606254	19.938227
11748.030000	10312.790852	0.605660	19.947503
11748.031000	10313.420078	0.605569	19.948388
11748.032000	10314.186862	0.606421	19.946824
11748.033000	10314.572758	0.607590	19.932780
11748.034000	10314.502481	0.607547	19.936312
11748.035000	10315.281935	0.607215	19.944536
11748.036000	10315.308841	0.607690	19.936907
11748.037000	10315.933079	0.607442	19.929050
11748.038000	10315.807678	0.606914	19.936663
11748.039000	10316.443748	0.606528	19.929942
11748.040000	10315.911333	0.606377	19.924168
11748.041000	10316.398919	0.606426	19.939661
11748.042000	10317.078818	0.607279	19.939005
11748.043000	10317.382971	0.607255	19.942186
11748.044000	10317.799634	0.607333	19.929889
11748.045000	10317.942573	0.607445	19.929195
11748.046000	10318.500475	0.607295	19.937670
11748.047000	10318.425655	0.606792	19.944162
11748.048000	10318.739892	0.606416	19.938517
11748.049000	10318.778145	0.606194	19.931758
11748.050000	10319.268216	0.605788	19.940103
11748.051000	10319.589604	0.606232	19.947678
11748.052000	10319.726186	0.607279	19.940324
11748.053000	10320.781519	0.607188	19.947610
11748.054000	10320.695043	0.607351	19.934527
11748.055000	10321.110201	0.607311	19.942232
11748.056000	10321.612643	0.607436	19.937395
11748.057000	10321.981136	0.607302	19.939569
11748.058000	10322.329215	0.606806	19.932979
11748.059000	10322.745326	0.606104	19.939119
11748.060000	10322.672382	0.605876	19.938120
11748.061000	10322.952910	0.606760	19.932162
11748.062000	10323.837560	0.607478	19.927646
11748.063000	10323.353004	0.607430	19.930972
11748.064000	10324.020158	0.606858	19.938273
11748.065000	10324.559774	0.606760	19.936213
11748.066000	10324.202265	0.606770	19.933635
11748.067000	10324.563657	0.606239	19.935999
11748.068000	10325.140760	0.605775	19.925831
11748.069000	10325.248049	0.604818	19.928821
11748.070000	10325.370094	0.605230	19.921704
11748.071000	10325.873707	0.605207	19.928134
11748.072000	10325.759303	0.605846	19.936160
11748.073000	10326.329693	0.606295	19.933154
11748.074000	10326.622064	0.606144	19.940897
11748.075000	10326.788333	0.606266	19.941240
11748.076000	10326.757310	0.606185	19.946389
11748.077000	10327.475283	0.606143	19.946305
11748.078000	10327.337484	0.605919	19.938143
11748.079000	10327.138085	0.605185	19.954559
11748.080000	10328.025742	0.605512	19.942453
11748.081000	10328.817750	0.606206	19.942018
11748.082000	10328.890568	0.607245	19.943231
11748.083000	10329.272654	0.607427	19.948106
11748.084000	10330.023439	0.607878	19.934428
11748.085000	10329.828318	0.607919	19.939569
11748.086000	10330.197912	0.608110	19.945405
11748.087000	10330.912043	0.608001	19.940004
11748.088000	10330.762117	0.607471	19.928584
11748.089000	10330.921964	0.606735	19.936938
11748.090000	10331.116957	0.606534	19.936098
11748.091000	10332.159754	0.606843	19.939440
11748.092000	10331.912852	0.607685	19.936083
11748.093000	10332.448832	0.607948	19.932917
11748.094000	10333.217633	0.608007	19.920674
11748.095000	10332.613347	0.607292	19.935847
11748.096000	10333.440358	0.607108	19.940889
11748.097000	10333.588171	0.607295	19.937296
11748.098000	10333.624599	0.606334	19.938860
11748.099000	10334.153802	0.605373	19.944505
11748.100000	10334.243850	0.605282	19.944497
11748.101000	10334.480758	0.605128	19.945657
11748.102000	10335.008310	0.606545	19.934542
11748.103000	10335.579413	0.606923	19.937502
11748.104000	10335.781908	0.606827	19.942377
11748.105000	10336.030472	0.606749	19.938707
11748.106000	10336.146266	0.607144	19.935259
11748.107000	10336.501629	0.607258	19.927860
11748.108000	10336.836916	0.606614	19.931003
11748.109000	10337.176088	0.605977	19.931949
11748.110000	10337.031671	0.605790	19.924892
11748.111000	10337.127363	0.606377	19.929111
11748.112000	10337.873227	0.607503	19.922512
11748.113000	10337.876331	0.607577	19.937388
11748.114000	10338.800560	0.607052	19.941629
11748.115000	10338.763306	0.607419	19.928195
11748.116000	10339.057821	0.607377	19.939768
11748.117000	10339.466283	0.606832	19.950486
11748.118000	10339.606206	0.606416	19.948800
11748.119000	10340.546094	0.606241	19.943651
11748.120000	10340.621200	0.606385	19.943856
11748.121000	10340.893903	0.607347	19.933238
11748.122000	10341.548310	0.607208	19.953995
11748.123000	10342.243829	0.607944	19.943452
11748.124000	10342.479043	0.608158	19.934847
11748.125000	10342.185217	0.607775	19.930957
11748.126000	10342.497199	0.607228	19.941980
11748.127000	10342.724549	0.606581	19.944688
11748.128000	10342.936308	0.605641	19.947885
11748.129000	10342.871980	0.605140	19.938669
11748.130000	10342.514731	0.604731	19.929851
11748.131000	10343.761611	0.604902	19.944208
11748.132000	10344.536779	0.606288	19.929843
11748.133000	10344.091295	0.606494	19.933749
11748.134000	10344.756859	0.606472	19.928737
11748.135000	10345.239870	0.606271	19.933329
11748.136000	10345.434844	0.606894	19.925800
11748.137000	10345.924669	0.607228	19.931323
11748.138000	10345.758402	0.606304	19.932475
11748.139000	10345.858754	0.605563	19.926845
11748.140000	10346.453832	0.605786	19.920949
11748.141000	10346.948475	0.606855	19.925297
11748.142000	10346.998331	0.607790	19.916524
11748.143000	10347.567131	0.607169	19.926075
11748.144000	10347.883628	0.606845	19.939928
11748.145000	10348.577419	0.607042	19.939524
11748.146000	10348.068420	0.606854	19.947205
11748.147000	10349.081822	0.606216	19.951584
11748.148000	10349.023913	0.606092	19.944681
11748.149000	10348.902097	0.604913	19.949562
11748.150000	10349.092950	0.605089	19.948838
11748.151000	10349.370167	0.605605	19.948159
11748.152000	10350.405808	0.606753	19.932429
11748.153000	10350.017207	0.606605	19.944055
11748.154000	10350.406276	0.606408	19.943048
11748.155000	10351.088343	0.606524	19.943674
11748.156000	10351.867876	0.607321	19.932132
11748.157000	10351.404684	0.607342	19.929553
11748.158000	10351.750111	0.606752	19.931338
11748.159000	10351.572902	0.605546	19.936777
11748.160000	10352.039567	0.605774	19.937395
11748.161000	10352.083045	0.607308	19.924046
11748.162000	10352.972423	0.607876	19.931018
11748.163000	10353.212221	0.607527	19.929675
11748.164000	10353.578938	0.607242	19.933200
11748.165000	10353.487572	0.607708	19.933482
11748.166000	10354.582373	0.607804	19.933909
11748.167000	10354.600706	0.607235	19.942499
11748.168000	10355.433124	0.606738	19.946191
11748.169000	10354.979491	0.606686	19.934290
11748.170000	10355.155879	0.606489	19.935626
11748.171000	10355.900987	0.606801	19.932772
11748.172000	10355.941287	0.607492	19.933276
11748.173000	10356.366080	0.607562	19.940020
11748.174000	10356.660058	0.607059	19.946115
11748.175000	10357.320236	0.606570	19.949189
11748.176000	10357.248418	0.606905	19.943536
11748.177000	10357.348294	0.606747	19.937876
11748.178000	10357.780212	0.606319	19.932094
11748.179000	10357.982419	0.605606	19.933062
11748.180000	10358.003873	0.605333	19.939318
11748.181000	10358.751591	0.605849	19.932948
11748.182000	10358.352661	0.606630	19.928119
11748.183000	10358.766311	0.606846	19.940081
11748.184000	10359.347337	0.606809	19.941255
11748.185000	10359.792140	0.606873	19.945222
11748.186000	10360.246933	0.607098	19.933474
11748.187000	10360.357591	0.606808	19.942171
11748.188000	10360.842951	0.606581	19.942003
11748.189000	10360.496669	0.605931	19.946115
11748.190000	10361.027288	0.606515	19.939020
11748.191000	10361.717330	0.607296	19.931255
11748.192000	10361.818822	0.607741	19.942705
11748.193000	10362.426425	0.607746	19.937762
11748.194000	10362.885692	0.607863	19.934283
11748.195000	10362.881429	0.608554	19.929126
11748.196000	10363.660664	0.608470	19.925823
11748.197000	10363.841243	0.607716	19.932887
11748.198000	10363.630031	0.607047	19.931110
11748.199000	10364.638894	0.606110	19.937144
11748.200000	10364.410943	0.606205	19.931994
11748.201000	10364.861043	0.606881	19.922161
11748.202000	10365.049395	0.607318	19.931987
11748.203000	10365.461029	0.606932	19.946328
11748.204000	10365.397720	0.606347	19.946839
11748.205000	10365.922320	0.606857	19.935733
11748.206000	10367.167039	0.606328	19.950272
11748.207000	10367.100128	0.606161	19.941820
11748.208000	10366.785070	0.605332	19.947716
11748.209000	10366.547004	0.605140	19.937655
11748.210000	10367.791043	0.605303	19.933749
11748.211000	10368.219692	0.606010	19.940508
11748.212000	10368.002054	0.606844	19.935801
11748.213000	10368.255299	0.606453	19.940058
11748.214000	10369.031073	0.606498	19.925770
11748.215000	10369.504529	0.606705	19.933177
11748.216000	10369.468132	0.606660	19.943292
11748.217000	10369.139051	0.606496	19.929836
11748.218000	10369.863523	0.605388	19.929721
11748.219000	10370.488367	0.605387	19.924869
11748.220000	10369.590064	0.605898	19.922627
11748.221000	10370.829728	0.605592	19.938829
11748.222000	10371.290696	0.606030	19.931414
11748.223000	10371.274451	0.606695	19.931545
11748.224000	10371.941477	0.607308	19.926296
11748.225000	10371.968197	0.606891	19.937167
11748.226000	10372.317243	0.606726	19.938593
11748.227000	10372.805755	0.606900	19.938562
11748.228000	10372.782603	0.606467	19.938975
11748.229000	10373.070466	0.605897	19.932917
11748.230000	10373.170229	0.605072	19.949753
11748.231000	10373.226944	0.606288	19.944200
11748.232000	10373.803807	0.607115	19.946374
11748.233000	10374.143779	0.606845	19.953293
11748.234000	10374.316242	0.607005	19.941347
11748.235000	10374.895599	0.607057	19.942941
11748.236000	10374.908734	0.607492	19.937517
11748.237000	10375.264563	0.607288	19.937838
11748.238000	10375.593572	0.606793	19.935709
11748.239000	10375.757661	0.606354	19.937167
11748.240000	10376.132611	0.606496	19.933047
11748.241000	10376.243497	0.607062	19.927906
11748.242000	10377.073785	0.607514	19.937251
11748.243000	10377.509746	0.608299	19.936831
11748.244000	10377.676541	0.607986	19.931826
11748.245000	10378.083807	0.608160	19.925983
11748.246000	10378.506516	0.608176	19.938975
11748.247000	10378.794201	0.607750	19.941210
11748.248000	10379.668248	0.607280	19.939256
11748.249000	10379.367159	0.606706	19.930339
11748.250000	10379.617297	0.606146	19.933253
11748.251000	10379.821610	0.606280	19.939646
11748.252000	10380.630014	0.606948	19.943330
11748.253000	10380.842361	0.607309	19.936274
11748.254000	10381.100432	0.606574	19.942003
11748.255000	10381.339412	0.606343	19.942140
11748.256000	10381.151766	0.606222	19.945436
11748.257000	10381.945476	0.606305	19.930934
11748.258000	10381.971992	0.605528	19.938837
11748.259000	10381.842093	0.605253	19.920452
11748.260000	10382.252629	0.604837	19.924892
11748.261000	10382.381973	0.605162	19.930949
11748.262000	10382.659974	0.605961	19.933047
11748.263000	10383.712921	0.606535	19.925152
11748.264000	10383.797737	0.606466	19.919560
11748.265000	10383.952580	0.606294	19.933230
11748.266000	10383.939457	0.606881	19.931903
11748.267000	10384.531568	0.605918	19.946099
11748.268000	10384.656676	0.605978	19.938090
11748.269000	10385.313519	0.605757	19.939981
11748.270000	10385.292995	0.605503	19.942636
11748.271000	10385.242776	0.605764	19.944596
11748.272000	10386.055591	0.606787	19.943361
11748.273000	10386.169659	0.607358	19.943444
11748.274000	10386.721649	0.607348	19.946732
11748.275000	10386.796987	0.606941	19.942079
11748.276000	10387.225337	0.607082	19.946214
11748.277000	10387.453538	0.607020	19.946648
11748.278000	10387.641903	0.606681	19.942201
11748.279000	10388.225709	0.606281	19.937067
11748.280000	10388.397426	0.606356	19.942697
11748.281000	10388.635285	0.606997	19.934123
11748.282000	10388.873896	0.607606	19.944612
11748.283000	10389.606067	0.608088	19.935145
11748.284000	10390.036599	0.608093	19.922337
11748.285000	10389.461312	0.608179	19.923626
11748.286000	10390.757632	0.607782	19.926571
11748.287000	10391.462749	0.607179	19.936861
11748.288000	10391.000343	0.606774	19.935450
11748.289000	10390.870782	0.606529	19.925396
11748.290000	10391.741778	0.605568	19.939104
11748.291000	10391.555036	0.606325	19.932475
11748.292000	10392.478740	0.607130	19.928554
11748.293000	10392.801179	0.607304	19.931537
11748.294000	10392.530162	0.606165	19.937189
11748.295000	10392.651294	0.606134	19.944093
11748.296000	10393.448253	0.607189	19.933795
11748.297000	10393.714333	0.606820	19.936923
11748.298000	10394.189148	0.605519	19.943010
11748.299000	10393.979956	0.604939	19.932338
11748.300000	10394.038826	0.605386	19.927654
11748.301000	10394.212955	0.605544	19.939303
11748.302000	10395.014852	0.606377	19.937838
11748.303000	10395.222769	0.607048	19.935198
11748.304000	10395.648060	0.606222	19.948289
11748.305000	10395.336450	0.607002	19.933398
11748.306000	10395.994252	0.606981	19.939135
11748.307000	10396.689912	0.607053	19.938921
11748.308000	10397.002382	0.606686	19.939318
11748.309000	10396.498790	0.606099	19.934054
11748.310000	10397.169145	0.605735	19.946877
11748.311000	10397.579790	0.606696	19.942278
11748.312000	10397.413234	0.608149	19.936549
11748.313000	10397.594846	0.608470	19.931186
11748.314000	10397.909401	0.607665	19.941439
11748.315000	10399.009861	0.607345	19.942773
11748.316000	10399.322956	0.608332	19.930698
11748.317000	10399.627710	0.607898	19.939089
11748.318000	10399.897522	0.607001	19.943323
11748.319000	10400.072819	0.606758	19.943712
11748.320000	10400.464638	0.607562	19.927326
11748.321000	10400.856456	0.608084	19.932132
11748.322000	10401.424225	0.608092	19.942377
11748.323000	10401.255539	0.608062	19.939730
11748.324000	10401.841393	0.608421	19.934985
11748.325000	10402.293878	0.608095	19.936014
11748.326000	10403.023426	0.608372	19.918225
11748.327000	10402.960181	0.607285	19.935137
11748.328000	10402.843904	0.606040	19.949890
11748.329000	10403.428085	0.605678	19.938303
11748.330000	10403.697309	0.605813	19.930278
11748.331000	10403.784213	0.606586	19.924297
11748.332000	10404.167209	0.606482	19.936671
11748.333000	10404.700762	0.606447	19.934069
11748.334000	10405.167484	0.606379	19.923023
11748.335000	10405.639189	0.606439	19.931148
11748.336000	10405.147285	0.606632	19.932193
11748.337000	10405.706014	0.605612	19.946511
11748.338000	10406.223846	0.605966	19.930469
11748.339000	10406.404812	0.605359	19.928539
11748.340000	10406.262711	0.604715	19.935862
11748.341000	10406.479294	0.605059	19.938692
11748.342000	10407.174566	0.606062	19.939882
11748.343000	10407.202959	0.607103	19.933284
11748.344000	10407.602697	0.606703	19.937617
11748.345000	10407.937959	0.606264	19.934031
11748.346000	10408.019999	0.606621	19.937685
11748.347000	10409.220412	0.606500	19.936976
11748.348000	10409.371872	0.606170	19.938647
11748.349000	10409.256881	0.605862	19.931369
11748.350000	10409.404465	0.606184	19.922963
11748.351000	10409.575230	0.606439	19.933604
11748.352000	10409.892415	0.607577	19.931407
11748.353000	10410.440895	0.607179	19.943750
11748.354000	10411.536704	0.607059	19.933375
11748.355000	10411.124949	0.606591	19.939699
11748.356000	10410.910904	0.606480	19.949822
11748.357000	10411.433472	0.606644	19.942644
11748.358000	10411.895954	0.606248	19.943010
11748.359000	10412.267353	0.605455	19.948503
11748.360000	10412.034066	0.605098	19.951447
11748.361000	10412.465139	0.605532	19.947083
11748.362000	10412.788737	0.606894	19.933802
11748.363000	10413.106481	0.607386	19.941599
11748.364000	10413.942533	0.607583	19.936595
11748.365000	10414.328310	0.607465	19.931659
11748.366000	10414.162844	0.607547	19.931689
11748.367000	10414.333766	0.607430	19.933581
11748.368000	10414.612203	0.607374	19.927745
11748.369000	10415.083064	0.606960	19.928508
11748.370000	10415.133322	0.606025	19.937228
11748.371000	10415.356441	0.606401	19.930270
11748.372000	10415.621298	0.607156	19.928897
11748.373000	10416.530643	0.607216	19.944619
11748.374000	10416.647923	0.607456	19.937617
11748.375000	10416.694742	0.607562	19.930248
11748.376000	10417.344659	0.607605	19.934817
11748.377000	10417.317187	0.607282	19.941202
11748.378000	10417.827957	0.606519	19.950509
11748.379000	10417.560688	0.606421	19.936449
11748.380000	10417.850371	0.606152	19.931026
11748.381000	10418.717719	0.606832	19.943323
11748.382000	10418.735748	0.607840	19.940477
11748.383000	10419.006763	0.607914	19.941019
11748.384000	10419.663831	0.607620	19.942674
11748.385000	10419.954815	0.607908	19.942682
11748.386000	10420.857842	0.607697	19.951561
11748.387000	10420.754280	0.607519	19.952225
11748.388000	10420.982092	0.606872	19.948266
11748.389000	10421.122869	0.606739	19.944315
11748.390000	10421.726205	0.607028	19.928172
11748.391000	10421.820214	0.606928	19.941400
11748.392000	10422.195593	0.607367	19.939188
11748.393000	10422.702212	0.607534	19.933406
11748.394000	10423.094955	0.607496	19.930316
11748.395000	10422.586338	0.607816	19.922604
11748.396000	10422.704190	0.607221	19.933261
11748.397000	10423.618858	0.606835	19.929233
11748.398000	10423.572475	0.606461	19.923817
11748.399000	10423.900257	0.605884	19.925983
11748.400000	10423.886208	0.606007	19.910528
11748.401000	10424.111846	0.605984	19.916425
11748.402000	10425.055277	0.607113	19.934794
11748.403000	10425.444333	0.607869	19.929317
11748.404000	10425.705866	0.607580	19.926136
11748.405000	10425.685425	0.606708	19.944543
11748.406000	10427.022909	0.607250	19.942903
11748.407000	10426.759550	0.607664	19.938395
11748.408000	10426.665626	0.606727	19.941843
11748.409000	10427.036382	0.605945	19.949776
11748.410000	10427.519347	0.605793	19.958275
11748.411000	10427.685861	0.606730	19.949570
11748.412000	10428.246756	0.607421	19.949258
11748.413000	10429.212464	0.607270	19.939478
11748.414000	10429.000989	0.607093	19.939554
11748.415000	10429.600872	0.607420	19.938334
11748.416000	10429.508508	0.607673	19.933665
11748.417000	10430.284100	0.607291	19.929523
11748.418000	10430.054471	0.606093	19.931926
11748.419000	10430.261970	0.605533	19.928714
11748.420000	10430.474024	0.605474	19.934123
11748.421000	10430.839505	0.605534	19.932894
11748.422000	10431.408492	0.606510	19.927669
11748.423000	10431.662506	0.607079	19.923375
11748.424000	10431.479578	0.606346	19.929546
11748.425000	10431.871026	0.606266	19.923984
11748.426000	10432.186082	0.606763	19.927005
11748.427000	10432.375704	0.606748	19.929187
11748.428000	10432.575069	0.605979	19.924450
11748.429000	10432.910134	0.605065	19.930087
11748.430000	10432.986158	0.604806	19.937136
11748.431000	10433.590843	0.605361	19.934428
11748.432000	10433.644570	0.606080	19.943742
11748.433000	10434.463217	0.606949	19.943697
11748.434000	10434.081171	0.607039	19.946199
11748.435000	10435.004085	0.606943	19.951889
11748.436000	10435.235667	0.607333	19.938799
11748.437000	10435.333888	0.607464	19.940828
11748.438000	10435.732848	0.607057	19.938349
11748.439000	10436.259327	0.606454	19.941515
11748.440000	10436.281369	0.606286	19.938578
11748.441000	10436.089553	0.607680	19.927456
11748.442000	10437.332076	0.608317	19.938562
11748.443000	10437.076354	0.608364	19.935374
11748.444000	10437.518044	0.608162	19.935214
11748.445000	10437.762607	0.608241	19.939775
11748.446000	10438.570451	0.608249	19.935153
11748.447000	10438.408279	0.607365	19.941896
11748.448000	10438.627617	0.606474	19.954147
11748.449000	10439.007871	0.606495	19.940393
11748.450000	10438.999933	0.605868	19.946572
11748.451000	10439.658227	0.606655	19.936930
11748.452000	10440.009142	0.607581	19.937350
11748.453000	10440.463073	0.607796	19.938295
11748.454000	10440.569972	0.607497	19.934756
11748.455000	10440.640527	0.607727	19.938334
11748.456000	10441.437865	0.607605	19.938715
11748.457000	10441.216140	0.607279	19.931399
11748.458000	10441.921933	0.606625	19.935099
11748.459000	10442.975422	0.606470	19.922047
11748.460000	10442.645975	0.606298	19.935885
11748.461000	10442.729895	0.606716	19.931133
11748.462000	10443.331762	0.607923	19.925854
11748.463000	10443.574818	0.608043	19.927844
11748.464000	10444.573066	0.607553	19.924915
11748.465000	10444.252326	0.607155	19.932399
11748.466000	10444.602755	0.607080	19.932178
11748.467000	10445.172291	0.606286	19.936129
11748.468000	10445.388731	0.605929	19.930728
11748.469000	10445.458043	0.605076	19.940752
11748.470000	10444.861670	0.604907	19.939508
11748.471000	10445.428425	0.605063	19.942972
11748.472000	10445.861721	0.606235	19.937082
11748.473000	10446.393753	0.606408	19.938837
11748.474000	10446.771586	0.605862	19.940470
11748.475000	10446.776710	0.605702	19.943193
11748.476000	10446.742706	0.606042	19.940447
11748.477000	10447.300944	0.606903	19.923962
11748.478000	10448.021093	0.606423	19.923268
11748.479000	10447.562006	0.605626	19.937075
11748.480000	10447.609487	0.605861	19.929126
11748.481000	10448.280817	0.607127	19.916204
11748.482000	10448.857058	0.608397	19.916120
11748.483000	10449.224044	0.608386	19.928874
11748.484000	10449.400666	0.608036	19.941042
11748.485000	10449.572269	0.607398	19.943803
11748.486000	10450.002688	0.608282	19.929988
11748.487000	10450.077736	0.607873	19.940889
11748.488000	10450.521512	0.606931	19.948594
11748.489000	10451.093869	0.606121	19.950722
11748.490000	10451.156666	0.605761	19.962676
11748.491000	10451.277238	0.606842	19.956642
11748.492000	10452.397879	0.608144	19.949265
11748.493000	10452.286866	0.607789	19.961425
11748.494000	10452.556530	0.608109	19.943155
11748.495000	10453.583634	0.608575	19.930812
11748.496000	10453.402436	0.608674	19.932109
11748.497000	10454.235883	0.607691	19.941332
11748.498000	10454.277203	0.607006	19.939821
11748.499000	10454.433040	0.606614	19.927456
11748.500000	10454.797473	0.605818	19.930042
11748.501000	10455.308514	0.606305	19.917005
11748.502000	10455.018982	0.606473	19.925152
11748.503000	10455.718641	0.607157	19.916288
11748.504000	10455.929204	0.607023	19.913442
11748.505000	10456.253292	0.606307	19.922512
11748.506000	10455.994118	0.606222	19.929370
11748.507000	10456.341307	0.606219	19.927883
11748.508000	10456.975193	0.605254	19.932300
11748.509000	10457.107586	0.604437	19.933123
11748.510000	10457.013706	0.604303	19.944452
11748.511000	10457.875169	0.604834	19.948166
11748.512000	10457.996874	0.606261	19.937151
11748.513000	10457.756888	0.606493	19.944924
11748.514000	10459.063349	0.606810	19.940241
11748.515000	10459.267901	0.606626	19.940538
11748.516000	10458.980045	0.606803	19.940127
11748.517000	10459.652105	0.606979	19.931338
11748.518000	10459.991673	0.606499	19.930904
11748.519000	10460.198750	0.606040	19.934550
11748.520000	10460.222934	0.606363	19.930789
11748.521000	10460.745777	0.607478	19.916112
11748.522000	10460.679041	0.607462	19.928409
11748.523000	10461.155682	0.607378	19.939287
11748.524000	10461.942124	0.607453	19.936625
11748.525000	10462.055043	0.607299	19.935740
11748.526000	10462.163530	0.606770	19.945428
11748.527000	10462.624566	0.606733	19.944658
11748.528000	10462.816748	0.606338	19.949097
11748.529000	10462.490417	0.606033	19.943384
11748.530000	10463.591515	0.606150	19.936488
11748.531000	10463.875313	0.606477	19.940279
11748.532000	10464.535912	0.607366	19.942545
11748.533000	10464.747628	0.607637	19.941255
11748.534000	10464.395864	0.607422	19.943216
11748.535000	10465.315263	0.607891	19.935565
11748.536000	10465.909476	0.607926	19.931331
11748.537000	10466.498917	0.607252	19.937845
11748.538000	10466.452561	0.606431	19.935686
11748.539000	10466.408183	0.605646	19.935832
11748.540000	10466.464650	0.605787	19.930477
11748.541000	10466.444207	0.606585	19.930805
11748.542000	10467.010423	0.606840	19.938219
11748.543000	10467.255162	0.606559	19.938654
11748.544000	10467.582949	0.606186	19.939569
11748.545000	10468.200439	0.606128	19.937273
11748.546000	10468.013169	0.606523	19.933863
11748.547000	10468.408597	0.605849	19.939394
11748.548000	10468.421384	0.605881	19.927516
11748.549000	10468.600605	0.605253	19.940096
11748.550000	10469.043089	0.605426	19.938166
11748.551000	10469.991129	0.606277	19.938471
11748.552000	10469.646596	0.607456	19.926349
11748.553000	10470.713457	0.607893	19.926487
11748.554000	10471.115099	0.607917	19.921902
11748.555000	10471.188405	0.608152	19.929409
11748.556000	10471.194733	0.608380	19.934191
11748.557000	10471.522849	0.608246	19.927593
11748.558000	10471.812714	0.606896	19.935740
11748.559000	10472.076465	0.606397	19.943323
11748.560000	10472.255673	0.605935	19.949974
11748.561000	10472.372504	0.606337	19.945283
11748.562000	10473.127773	0.606703	19.951004
11748.563000	10473.285771	0.607204	19.946442
11748.564000	10473.552683	0.607261	19.945123
11748.565000	10474.132118	0.607022	19.944330
11748.566000	10474.276617	0.607062	19.948220
11748.567000	10474.592985	0.607334	19.940081
11748.568000	10474.867337	0.606525	19.951096
11748.569000	10475.177404	0.605995	19.945138
11748.570000	10474.986333	0.606168	19.930530
11748.571000	10475.663568	0.606268	19.935084
11748.572000	10475.542725	0.606725	19.938860
11748.573000	10476.270813	0.607713	19.920308
11748.574000	10477.279051	0.607462	19.925434
11748.575000	10476.211193	0.607104	19.927181
11748.576000	10476.874981	0.607549	19.929081
11748.577000	10476.897374	0.607494	19.918286
11748.578000	10477.858666	0.606942	19.922833
11748.579000	10477.949859	0.606155	19.925213
11748.580000	10478.433556	0.606216	19.923885
11748.581000	10478.269011	0.606436	19.929843
11748.582000	10479.042972	0.607012	19.937281
11748.583000	10479.102129	0.607841	19.942728
11748.584000	10479.831860	0.608057	19.931826
11748.585000	10480.068155	0.607574	19.938570
11748.586000	10480.189782	0.607658	19.942941
11748.587000	10480.622624	0.607481	19.941911
11748.588000	10480.426248	0.606464	19.952164
11748.589000	10481.003708	0.605992	19.945077
11748.590000	10480.833899	0.606268	19.937891
11748.591000	10481.817514	0.606809	19.940698
11748.592000	10482.221812	0.607163	19.950272
11748.593000	10482.710937	0.607042	19.953194
11748.594000	10483.266896	0.607218	19.943956
11748.595000	10482.638538	0.607153	19.941774
11748.596000	10482.961498	0.607462	19.943094
11748.597000	10483.333198	0.607221	19.941202
11748.598000	10483.366074	0.606561	19.939112
11748.599000	10483.973641	0.606421	19.927021
11748.600000	10484.541133	0.605931	19.927471
11748.601000	10484.562323	0.606611	19.919476
11748.602000	10484.842113	0.607610	19.919056
11748.603000	10486.005456	0.608157	19.916333
11748.604000	10485.919542	0.607891	19.922528
11748.605000	10485.876835	0.608018	19.919721
11748.606000	10486.404300	0.607425	19.935465
11748.607000	10486.811221	0.606664	19.943613
11748.608000	10487.075827	0.606366	19.938181
11748.609000	10487.162454	0.605891	19.934115
11748.610000	10487.574846	0.605400	19.935633
11748.611000	10487.921591	0.605739	19.937067
11748.612000	10488.463105	0.606729	19.940043
11748.613000	10489.212838	0.607013	19.942773
11748.614000	10488.748283	0.606536	19.946786
11748.615000	10489.461477	0.606389	19.941583
11748.616000	10489.589889	0.606633	19.942301
11748.617000	10489.374807	0.606582	19.936091
11748.618000	10489.784252	0.605892	19.933673
11748.619000	10490.008313	0.604980	19.934313
11748.620000	10490.729270	0.605026	19.927829
11748.621000	10490.383755	0.605943	19.929271
11748.622000	10490.514820	0.606761	19.918271
11748.623000	10491.742355	0.606536	19.928363
11748.624000	10491.610674	0.606616	19.928569
11748.625000	10491.584582	0.607007	19.925198
11748.626000	10492.169464	0.606853	19.926845
11748.627000	10492.176083	0.606040	19.938837
11748.628000	10492.718206	0.606106	19.933146
11748.629000	10493.027153	0.605814	19.939791
11748.630000	10493.472711	0.605381	19.941301
11748.631000	10493.749189	0.605827	19.937357
11748.632000	10493.967129	0.607036	19.940882
11748.633000	10494.231167	0.607486	19.953881
11748.634000	10495.063448	0.606951	19.961379
11748.635000	10495.216938	0.607164	19.950165
11748.636000	10495.062275	0.607800	19.937571
11748.637000	10495.477722	0.607127	19.950013
11748.638000	10496.283618	0.606608	19.936792
11748.639000	10496.163027	0.606220	19.939920
11748.640000	10496.119484	0.606623	19.928912
11748.641000	10496.598240	0.606845	19.931201
11748.642000	10497.107373	0.607619	19.926075
11748.643000	10497.347409	0.607787	19.932444
11748.644000	10497.500117	0.607923	19.927143
11748.645000	10497.913506	0.607328	19.929126
11748.646000	10498.266052	0.606983	19.928234
11748.647000	10498.219753	0.607342	19.922077
11748.648000	10498.862906	0.606557	19.934847
11748.649000	10498.929384	0.606055	19.934725
11748.650000	10498.987332	0.605494	19.951721
11748.651000	10499.452927	0.606530	19.945680
11748.652000	10499.956251	0.607086	19.948586
11748.653000	10500.524246	0.607586	19.940111
11748.654000	10500.593410	0.607386	19.946122
11748.655000	10501.276394	0.607595	19.949181
11748.656000	10501.165732	0.607131	19.946870
11748.657000	10501.406209	0.607294	19.937311
11748.658000	10502.117152	0.606377	19.947114
11748.659000	10501.573355	0.606453	19.931605
11748.660000	10502.509297	0.606085	19.935259
11748.661000	10502.800141	0.606887	19.931849
11748.662000	10503.102177	0.607801	19.927166
11748.663000	10503.980909	0.607617	19.930850
11748.664000	10503.950674	0.607469	19.927364
11748.665000	10503.884440	0.607575	19.930980
11748.666000	10504.051583	0.607814	19.928020
11748.667000	10504.430838	0.607320	19.932170
11748.668000	10505.107402	0.606580	19.923420
11748.669000	10505.619704	0.605648	19.925045
11748.670000	10505.320640	0.605665	19.923542
11748.671000	10505.494919	0.606301	19.930354
11748.672000	10506.188214	0.606422	19.944131
11748.673000	10506.789724	0.607365	19.931247
11748.674000	10507.234985	0.607096	19.934009
11748.675000	10507.488012	0.606463	19.943872
11748.676000	10507.752992	0.606454	19.950135
11748.677000	10507.767471	0.606333	19.950890
11748.678000	10508.069486	0.605762	19.945291
11748.679000	10508.461534	0.605222	19.946153
11748.680000	10508.141929	0.604931	19.944589
11748.681000	10508.547261	0.605487	19.944017
11748.682000	10509.660716	0.606239	19.932475
11748.683000	10509.373990	0.607225	19.921841
11748.684000	10509.629462	0.607118	19.915654
11748.685000	10510.124168	0.606773	19.923176
11748.686000	10510.624607	0.606736	19.934588
11748.687000	10510.707292	0.607089	19.924168
11748.688000	10511.060373	0.606584	19.918828
11748.689000	10510.811350	0.605559	19.928165
11748.690000	10511.042395	0.604708	19.936259
11748.691000	10511.320027	0.605402	19.926517
11748.692000	10511.609788	0.606153	19.930293
11748.693000	10512.260299	0.606642	19.933368
11748.694000	10512.955460	0.606290	19.941377
11748.695000	10513.051259	0.606455	19.937540
11748.696000	10513.487551	0.606743	19.942850
11748.697000	10513.084834	0.606924	19.940729
11748.698000	10513.633455	0.606353	19.947244
11748.699000	10514.279947	0.605780	19.950448
11748.700000	10514.147910	0.605727	19.953201
11748.701000	10513.856383	0.606577	19.943910
11748.702000	10514.938234	0.607078	19.944391
11748.703000	10515.170554	0.607498	19.947838
11748.704000	10515.863695	0.607730	19.942606
11748.705000	10515.923209	0.607644	19.939745
11748.706000	10516.062058	0.607744	19.937532
11748.707000	10516.217907	0.608078	19.927616
11748.708000	10516.233106	0.607868	19.930942
11748.709000	10516.695101	0.607234	19.932399
11748.710000	10516.834846	0.606802	19.930331
11748.711000	10517.329489	0.607358	19.923184
11748.712000	10517.559528	0.608192	19.925075
11748.713000	10517.705464	0.608463	19.928119
11748.714000	10518.307833	0.608767	19.920460
11748.715000	10518.525573	0.608555	19.933978
11748.716000	10518.769109	0.608236	19.949128
11748.717000	10519.108863	0.607869	19.941942
11748.718000	10519.816822	0.607264	19.944444
11748.719000	10519.826650	0.606906	19.947358
11748.720000	10520.517313	0.607466	19.934115
11748.721000	10520.688957	0.607488	19.945962
11748.722000	10521.270055	0.607894	19.955917
11748.723000	10521.298420	0.608723	19.940431
11748.724000	10521.618328	0.608406	19.947885
11748.725000	10522.544797	0.608091	19.944612
11748.726000	10523.023032	0.608044	19.940569
11748.727000	10522.864894	0.607607	19.942094
11748.728000	10522.739311	0.606705	19.944719
11748.729000	10523.011724	0.606023	19.934107
11748.730000	10523.485903	0.606064	19.934649
11748.731000	10523.878704	0.606744	19.929797
11748.732000	10523.867035	0.606686	19.934039
11748.733000	10524.749920	0.606953	19.923840
11748.734000	10524.619433	0.606829	19.921208
11748.735000	10525.088717	0.607030	19.920399
11748.736000	10525.513050	0.606887	19.929409
11748.737000	10525.462356	0.606692	19.924732
11748.738000	10525.897593	0.605704	19.925777
11748.739000	10525.784886	0.605534	19.920247
11748.740000	10526.833738	0.605578	19.922863
11748.741000	10526.541066	0.606214	19.927677
11748.742000	10527.226239	0.606736	19.933787
11748.743000	10527.174620	0.607151	19.935358
11748.744000	10527.902438	0.607037	19.933230
11748.745000	10527.993439	0.607253	19.928134
11748.746000	10528.456083	0.606641	19.945413
11748.747000	10528.797368	0.606347	19.948503
11748.748000	10528.727569	0.605802	19.951905
11748.749000	10528.681306	0.605293	19.944917
11748.750000	10528.981879	0.605482	19.941873
11748.751000	10529.589413	0.606168	19.935473
11748.752000	10530.378268	0.606865	19.933009
11748.753000	10530.550445	0.607108	19.938837
11748.754000	10530.648169	0.607080	19.942392
11748.755000	10531.527086	0.607059	19.935679
11748.756000	10531.514334	0.607407	19.932544
11748.757000	10531.920051	0.607126	19.935976
11748.758000	10531.998973	0.606836	19.929637
11748.759000	10532.324870	0.606139	19.923771
11748.760000	10532.396650	0.605504	19.939287
11748.761000	10532.320631	0.606338	19.946664
11748.762000	10532.720840	0.607408	19.931270
11748.763000	10532.766676	0.607871	19.916677
11748.764000	10533.606461	0.607176	19.926662
11748.765000	10534.171373	0.607418	19.932673
11748.766000	10534.235210	0.607090	19.931613
11748.767000	10534.820031	0.606675	19.928935
11748.768000	10535.222583	0.606601	19.926632
11748.769000	10535.308395	0.606184	19.942422
11748.770000	10535.261975	0.605913	19.948548
11748.771000	10535.498635	0.606561	19.943307
11748.772000	10535.610084	0.607473	19.933001
11748.773000	10536.855501	0.607526	19.943971
11748.774000	10536.595978	0.606973	19.944002
11748.775000	10537.047581	0.606721	19.947510
11748.776000	10536.822148	0.606717	19.944886
11748.777000	10537.649884	0.606791	19.944085
11748.778000	10537.921176	0.606592	19.938555
11748.779000	10537.838165	0.605610	19.944993
11748.780000	10538.211437	0.604931	19.947305
11748.781000	10538.526482	0.605863	19.937510
11748.782000	10538.792549	0.607038	19.930675
11748.783000	10539.411240	0.607633	19.932635
11748.784000	10539.846057	0.607863	19.918736
11748.785000	10539.601137	0.607555	19.919850
11748.786000	10539.912966	0.607910	19.927646
11748.787000	10540.035528	0.608140	19.926769
11748.788000	10540.485760	0.606889	19.930469
11748.789000	10540.597000	0.606004	19.932109
11748.790000	10541.000900	0.605894	19.937266
11748.791000	10541.682608	0.606924	19.929904
11748.792000	10541.823257	0.607803	19.931529
11748.793000	10542.148373	0.607882	19.944230
11748.794000	10542.643020	0.608180	19.936633
11748.795000	10542.908374	0.607982	19.942941
11748.796000	10543.269085	0.608198	19.937998
11748.797000	10543.312683	0.608462	19.933017
11748.798000	10543.918668	0.607258	19.942750
11748.799000	10544.325244	0.606734	19.938829
11748.800000	10544.183853	0.606259	19.942194
11748.801000	10545.007605	0.607228	19.930370
11748.802000	10545.347203	0.607412	19.940889
11748.803000	10545.529875	0.607583	19.949341
11748.804000	10546.109590	0.607726	19.938326
11748.805000	10545.974190	0.606920	19.943651
11748.806000	10546.248650	0.607385	19.932132
11748.807000	10546.964685	0.606654	19.939249
11748.808000	10546.524551	0.605735	19.948151
11748.809000	10547.025243	0.605786	19.928218
11748.810000	10547.119633	0.605401	19.923771
11748.811000	10547.453022	0.606088	19.925846
11748.812000	10548.051877	0.607104	19.926845
11748.813000	10548.699147	0.607536	19.916501
11748.814000	10549.112924	0.606828	19.931918
11748.815000	10549.187169	0.607101	19.928279
11748.816000	10549.129519	0.607285	19.931018
11748.817000	10549.351362	0.607142	19.930331
11748.818000	10549.852366	0.606250	19.936762
11748.819000	10550.120957	0.605774	19.934214
11748.820000	10550.160923	0.605421	19.936899
11748.821000	10550.544857	0.605605	19.940828
11748.822000	10550.980543	0.606587	19.938029
11748.823000	10551.648615	0.607315	19.937914
11748.824000	10552.195776	0.607078	19.941644
11748.825000	10551.754726	0.606583	19.945520
11748.826000	10552.036749	0.607097	19.939043
11748.827000	10552.940340	0.606816	19.944017
11748.828000	10553.025119	0.606157	19.945924
11748.829000	10552.672630	0.605832	19.934954
11748.830000	10553.630983	0.605309	19.936587
11748.831000	10553.507682	0.605245	19.942339
11748.832000	10553.795963	0.606214	19.939638
11748.833000	10554.230879	0.606790	19.940149
11748.834000	10554.615916	0.606978	19.931956
11748.835000	10554.856335	0.606995	19.919285
11748.836000	10554.999786	0.607083	19.925091
11748.837000	10555.855433	0.606998	19.929538
11748.838000	10555.933193	0.606807	19.923031
11748.839000	10555.970050	0.606204	19.925007
11748.840000	10556.517308	0.606253	19.927745
11748.841000	10556.416407	0.606774	19.936426
11748.842000	10557.263308	0.607071	19.942613
11748.843000	10557.725266	0.607600	19.934206
11748.844000	10557.843401	0.607489	19.933322
11748.845000	10558.501211	0.607342	19.938715
11748.846000	10558.570921	0.607373	19.938349
11748.847000	10558.531836	0.606799	19.947312
11748.848000	10559.046321	0.606309	19.940309
11748.849000	10559.399923	0.605601	19.943406
11748.850000	10559.576405	0.605257	19.943056
11748.851000	10559.808792	0.605868	19.931209
11748.852000	10559.921277	0.606515	19.941011
11748.853000	10560.475143	0.606564	19.945436
11748.854000	10560.830672	0.606809	19.934153
11748.855000	10560.223535	0.606959	19.931773
11748.856000	10561.441452	0.606868	19.939768
11748.857000	10561.757439	0.606471	19.938921
11748.858000	10561.767869	0.606255	19.932391
11748.859000	10562.125591	0.606065	19.926334
11748.860000	10561.917898	0.605389	19.938463
11748.861000	10562.818135	0.606282	19.932368
11748.862000	10563.192431	0.607483	19.937952
11748.863000	10563.607898	0.607923	19.936198
11748.864000	10563.707370	0.607203	19.936243
11748.865000	10564.140041	0.607328	19.932307
11748.866000	10564.426545	0.607484	19.938379
11748.867000	10564.309330	0.606749	19.948716
11748.868000	10564.898547	0.606364	19.937403
11748.869000	10565.380388	0.606229	19.933482
11748.870000	10565.042622	0.605817	19.939943
11748.871000	10565.963577	0.606231	19.946237
11748.872000	10565.884411	0.607166	19.940942
11748.873000	10566.316700	0.607408	19.931346
11748.874000	10566.851082	0.607618	19.925777
11748.875000	10566.894040	0.607423	19.928691
11748.876000	10567.489520	0.606998	19.940935
11748.877000	10567.354080	0.606708	19.940241
11748.878000	10567.655670	0.606530	19.927425
11748.879000	10568.175213	0.606232	19.921520
11748.880000	10568.047947	0.605966	19.929904
11748.881000	10568.480158	0.606467	19.936709
11748.882000	10568.676732	0.607491	19.935053
11748.883000	10569.332862	0.607713	19.931674
11748.884000	10569.511434	0.607205	19.937151
11748.885000	10569.964887	0.607337	19.944025
11748.886000	10569.806649	0.607405	19.943872
11748.887000	10570.530417	0.607146	19.947541
11748.888000	10570.692309	0.606954	19.933040
11748.889000	10570.755055	0.606364	19.938150
11748.890000	10571.107613	0.606490	19.935229
11748.891000	10571.699045	0.606851	19.939028
11748.892000	10572.072269	0.607793	19.931354
11748.893000	10572.602021	0.607592	19.942529
11748.894000	10572.408192	0.607491	19.940279
11748.895000	10572.456474	0.607678	19.937494
11748.896000	10573.293430	0.607620	19.946847
11748.897000	10573.493708	0.607050	19.951554
11748.898000	10574.228545	0.606891	19.931529
11748.899000	10574.334885	0.605592	19.943735
11748.900000	10574.382985	0.606066	19.927089
11748.901000	10575.100582	0.606236	19.937609
11748.902000	10574.473718	0.607550	19.932147
11748.903000	10575.294699	0.607898	19.927677
11748.904000	10575.445264	0.607474	19.922955
11748.905000	10576.226110	0.607469	19.920216
11748.906000	10576.508674	0.607754	19.919011
11748.907000	10576.489601	0.606816	19.926014
11748.908000	10576.841482	0.606084	19.929729
11748.909000	10577.154920	0.605987	19.927738
11748.910000	10576.939494	0.606137	19.928478
11748.911000	10577.024126	0.606969	19.926174
11748.912000	10578.009555	0.607146	19.933574
11748.913000	10578.205064	0.607098	19.937884
11748.914000	10578.680428	0.607091	19.934436
11748.915000	10578.794006	0.606998	19.946664
11748.916000	10578.637540	0.606944	19.937235
11748.917000	10579.229280	0.606799	19.948571
11748.918000	10579.595272	0.606353	19.954300
11748.919000	10579.432066	0.606152	19.943132
11748.920000	10580.153852	0.606199	19.943689
11748.921000	10580.200641	0.606670	19.946191
11748.922000	10581.066428	0.607461	19.949586
11748.923000	10581.347604	0.607921	19.946801
11748.924000	10581.875995	0.607989	19.942415
11748.925000	10581.825479	0.608442	19.931270
11748.926000	10582.346421	0.608466	19.936457
11748.927000	10582.250155	0.608173	19.931842
11748.928000	10583.402830	0.606949	19.936434
11748.929000	10583.116607	0.607114	19.921696
11748.930000	10583.446247	0.606619	19.932154
11748.931000	10583.879148	0.607199	19.915647
11748.932000	10584.285297	0.607936	19.915243
11748.933000	10584.663612	0.607966	19.926990
11748.934000	10584.744151	0.607495	19.922817
11748.935000	10585.459108	0.607226	19.926708
11748.936000	10585.730610	0.607045	19.927921
11748.937000	10586.014811	0.606772	19.920903
11748.938000	10586.354376	0.605359	19.935717
11748.939000	10586.180178	0.604721	19.947388
11748.940000	10586.473557	0.604669	19.948434
11748.941000	10586.653838	0.605373	19.941019
11748.942000	10587.475501	0.606170	19.934855
11748.943000	10587.964757	0.606066	19.941637
11748.944000	10587.939160	0.605632	19.952721
11748.945000	10588.684770	0.606209	19.936426
11748.946000	10588.523126	0.606429	19.931003
11748.947000	10588.436149	0.606383	19.930018
11748.948000	10589.088672	0.605598	19.932201
11748.949000	10589.427541	0.605049	19.932902
11748.950000	10589.196432	0.604822	19.931964
11748.951000	10589.418443	0.605223	19.930728
11748.952000	10590.400246	0.606100	19.935313
11748.953000	10590.541751	0.606308	19.940142
11748.954000	10590.489115	0.606811	19.920956
11748.955000	10591.371031	0.606588	19.932772
11748.956000	10591.409560	0.606635	19.941927
11748.957000	10591.581486	0.606475	19.934779
11748.958000	10591.753467	0.606431	19.929775
11748.959000	10591.562500	0.605308	19.934863
11748.960000	10591.944603	0.605215	19.938852
11748.961000	10592.215780	0.606045	19.938845
11748.962000	10592.960212	0.606670	19.947388
11748.963000	10593.213080	0.607484	19.942064
11748.964000	10593.194772	0.607288	19.944184
11748.965000	10594.150871	0.607550	19.933070
11748.966000	10594.300787	0.607790	19.930675
11748.967000	10594.290044	0.607759	19.935053
11748.968000	10594.641486	0.607347	19.934451
11748.969000	10594.779607	0.606791	19.933299
11748.970000	10595.021048	0.606344	19.931842
11748.971000	10595.554135	0.606532	19.937548
11748.972000	10596.126111	0.606957	19.938509
11748.973000	10596.128369	0.607243	19.948365
11748.974000	10596.417513	0.607910	19.930843
11748.975000	10596.779814	0.607508	19.941416
11748.976000	10597.152180	0.607393	19.944520
11748.977000	10597.445561	0.607476	19.943094
11748.978000	10597.601438	0.607183	19.942331
11748.979000	10597.494653	0.606468	19.938418
11748.980000	10597.761637	0.606456	19.935343
11748.981000	10598.589302	0.607140	19.934397
11748.982000	10598.545511	0.607950	19.927570
11748.983000	10599.275253	0.608074	19.931560
11748.984000	10599.750727	0.607907	19.930362
11748.985000	10599.915580	0.608014	19.931392
11748.986000	10600.284530	0.608118	19.941866
11748.987000	10600.617557	0.608018	19.933726
11748.988000	10601.132603	0.607155	19.929775
11748.989000	10600.890715	0.606431	19.938097
11748.990000	10601.659562	0.606603	19.931545
11748.991000	10601.984447	0.606932	19.933215
11748.992000	10602.225544	0.607744	19.929340
11748.993000	10602.146413	0.607763	19.936732
11748.994000	10602.728998	0.607446	19.936907
11748.995000	10603.351829	0.607189	19.941469
11748.996000	10603.864474	0.607271	19.936938
11748.997000	10603.738408	0.606680	19.940500
11748.998000	10603.878774	0.605717	19.944169
11748.999000	10604.528939	0.604804	19.946282
11749.000000	10604.494808	0.605434	19.935038
11749.001000	10604.756253	0.606258	19.937067
11749.002000	10604.185755	0.606358	19.943468
11749.003000	10605.199918	0.606835	19.924717
11749.004000	10605.214255	0.606762	19.936892
11749.005000	10606.013668	0.606778	19.930713
11749.006000	10606.416805	0.606682	19.930789
11749.007000	10606.348290	0.606580	19.925480
11749.008000	10606.913209	0.606212	19.932116
11749.009000	10606.971892	0.606085	19.922047
11749.010000	10607.246249	0.606075	19.925663
11749.011000	10607.666557	0.606048	19.930400
11749.012000	10608.173876	0.607083	19.926052
11749.013000	10608.677252	0.607789	19.926533
11749.014000	10608.776020	0.607310	19.938387
11749.015000	10609.090750	0.607356	19.932032
11749.016000	10609.535097	0.607271	19.939608
11749.017000	10609.599782	0.607177	19.931933
11749.018000	10609.650480	0.606197	19.937472
11749.019000	10610.099496	0.605523	19.937258
11749.020000	10609.911996	0.605538	19.942476
11749.021000	10610.454603	0.605777	19.947732
11749.022000	10610.915578	0.606620	19.947862
11749.023000	10611.541829	0.606923	19.950211
11749.024000	10611.606066	0.606760	19.950471
11749.025000	10612.014430	0.606810	19.946153
11749.026000	10612.279035	0.607228	19.943063
11749.027000	10612.154495	0.607100	19.938074
11749.028000	10612.416221	0.606749	19.940317
11749.029000	10613.157087	0.606072	19.941759
11749.030000	10612.955732	0.606164	19.924488
11749.031000	10613.508681	0.606780	19.931605
11749.032000	10613.918297	0.608060	19.925541
11749.033000	10614.098808	0.608690	19.910108
11749.034000	10614.446096	0.608093	19.926540
11749.035000	10615.513828	0.607854	19.931545
11749.036000	10615.450851	0.608246	19.929096
11749.037000	10615.702853	0.608161	19.920483
11749.038000	10615.728510	0.607066	19.927784
11749.039000	10616.104716	0.606782	19.928058
11749.040000	10616.121557	0.606081	19.943727
11749.041000	10617.429403	0.606311	19.947175
11749.042000	10617.099243	0.606929	19.944810
11749.043000	10617.465787	0.607101	19.939394
11749.044000	10618.226317	0.606980	19.941118
11749.045000	10618.370750	0.606665	19.940836
11749.046000	10618.193205	0.606988	19.943414
11749.047000	10618.721977	0.606568	19.943895
11749.048000	10618.681410	0.605955	19.938013
11749.049000	10619.202085	0.605476	19.931537
11749.050000	10619.445884	0.605053	19.933093
11749.051000	10618.890120	0.605524	19.940897
11749.052000	10619.779088	0.606124	19.941049
11749.053000	10620.172139	0.606623	19.938555
11749.054000	10620.753107	0.607151	19.927669
11749.055000	10620.870583	0.606920	19.929561
11749.056000	10621.280378	0.607237	19.930179
11749.057000	10620.932368	0.606885	19.931308
11749.058000	10621.550825	0.606439	19.933314
11749.059000	10621.792796	0.606299	19.934459
11749.060000	10622.698205	0.606012	19.934222
11749.061000	10622.437605	0.606895	19.926883
11749.062000	10622.987443	0.607796	19.928180
11749.063000	10623.417914	0.608374	19.925350
11749.064000	10623.497288	0.607755	19.939524
11749.065000	10623.991268	0.607789	19.943856
11749.066000	10624.286452	0.607838	19.935725
11749.067000	10624.980672	0.606942	19.943674
11749.068000	10625.063361	0.606124	19.949372
11749.069000	10624.702097	0.605574	19.955170
11749.070000	10625.190680	0.605890	19.945481
11749.071000	10625.605484	0.606741	19.938456
11749.072000	10626.035802	0.607506	19.941980
11749.073000	10626.509984	0.607751	19.939791
11749.074000	10627.026068	0.607216	19.938478
11749.075000	10627.124955	0.607485	19.929690
11749.076000	10627.671168	0.607701	19.934420
11749.077000	10627.858498	0.607022	19.943635
11749.078000	10627.765206	0.606803	19.936053
11749.079000	10628.015069	0.606520	19.921582
11749.080000	10628.010150	0.606405	19.916356
11749.081000	10628.780368	0.606772	19.921605
11749.082000	10628.907736	0.606997	19.928943
11749.083000	10629.001476	0.607150	19.929492
11749.084000	10629.016632	0.607198	19.932330
11749.085000	10629.709261	0.607136	19.930560
11749.086000	10630.295252	0.607024	19.937716
11749.087000	10630.636373	0.606813	19.939142
11749.088000	10630.609698	0.606348	19.936373
11749.089000	10629.910032	0.606130	19.934901
11749.090000	10630.873933	0.605729	19.937197
11749.091000	10631.163141	0.606543	19.942674
11749.092000	10631.918251	0.607265	19.942712
11749.093000	10632.358189	0.607660	19.931773
11749.094000	10632.752004	0.607823	19.930995
11749.095000	10632.861350	0.607679	19.940012
11749.096000	10633.267608	0.608408	19.934802
11749.097000	10633.729927	0.607973	19.939013
11749.098000	10633.849143	0.606664	19.955063
11749.099000	10634.102275	0.606805	19.929500
11749.100000	10634.914665	0.606262	19.930751
11749.101000	10634.533370	0.606444	19.933878
11749.102000	10635.207549	0.607326	19.934603
11749.103000	10635.317606	0.607418	19.938006
11749.104000	10635.634734	0.607331	19.929881
11749.105000	10636.445733	0.607309	19.928622
11749.106000	10636.136676	0.607102	19.928485
11749.107000	10636.357611	0.606455	19.934870
11749.108000	10637.181672	0.606285	19.924031
11749.109000	10636.581314	0.605557	19.930248
11749.110000	10637.308907	0.605435	19.932979
11749.111000	10637.672341	0.606354	19.919431
11749.112000	10638.160555	0.607178	19.918606
11749.113000	10638.040678	0.606780	19.941072
11749.114000	10638.827133	0.606492	19.949792
11749.115000	10638.867564	0.606446	19.952110
11749.116000	10638.659314	0.606790	19.943910
11749.117000	10639.341965	0.606976	19.930492
11749.118000	10639.325392	0.606023	19.943712
11749.119000	10639.764958	0.605385	19.947518
11749.120000	10639.819439	0.605684	19.938456
11749.121000	10640.430174	0.606576	19.923161
11749.122000	10641.370608	0.607119	19.936907
11749.123000	10641.133998	0.607420	19.937273
11749.124000	10641.520157	0.607674	19.936777
11749.125000	10642.121038	0.608111	19.931438
11749.126000	10642.343725	0.608212	19.931262
11749.127000	10643.011478	0.607666	19.942346
11749.128000	10643.055438	0.607185	19.942766
11749.129000	10642.928743	0.606820	19.927791
11749.130000	10643.513035	0.606304	19.932185
11749.131000	10643.915953	0.606938	19.932261
11749.132000	10644.036686	0.607603	19.936358
11749.133000	10644.478819	0.607474	19.934077
11749.134000	10644.733353	0.607354	19.927349
11749.135000	10644.738178	0.607175	19.935290
11749.136000	10645.422646	0.606966	19.941416
11749.137000	10645.541281	0.606840	19.935320
11749.138000	10646.056244	0.606161	19.930316
11749.139000	10645.626604	0.605444	19.932834
11749.140000	10645.741536	0.605337	19.930888
11749.141000	10646.441568	0.606188	19.937716
11749.142000	10646.571328	0.607416	19.925304
11749.143000	10647.059008	0.607235	19.927440
11749.144000	10647.073781	0.607571	19.930934
11749.145000	10647.721801	0.607544	19.925861
11749.146000	10648.306719	0.607691	19.928524
11749.147000	10648.766661	0.607154	19.938227
11749.148000	10649.219046	0.606864	19.939119
11749.149000	10649.241848	0.606314	19.934908
11749.150000	10649.458239	0.606321	19.934016
11749.151000	10649.756816	0.607425	19.932239
11749.152000	10650.117431	0.608035	19.934741
11749.153000	10650.369183	0.608036	19.940286
11749.154000	10651.153797	0.607549	19.935107
11749.155000	10651.032661	0.606859	19.948396
11749.156000	10652.020951	0.607162	19.949715
11749.157000	10652.106167	0.606843	19.934290
11749.158000	10651.481490	0.606015	19.940455
11749.159000	10652.132400	0.605594	19.939943
11749.160000	10653.026336	0.605227	19.937105
11749.161000	10652.793763	0.605198	19.934367
11749.162000	10653.033581	0.605922	19.932536
11749.163000	10654.012104	0.606938	19.917287
11749.164000	10653.963656	0.606065	19.927295
11749.165000	10654.075243	0.606502	19.918126
11749.166000	10654.562938	0.606756	19.922337
11749.167000	10654.692373	0.606573	19.920193
11749.168000	10654.884219	0.605532	19.924625
11749.169000	10654.895179	0.605185	19.919148
11749.170000	10655.228981	0.605187	19.925159
11749.171000	10655.366443	0.605722	19.927723
11749.172000	10656.020265	0.606178	19.938707
11749.173000	10655.851018	0.606694	19.942712
11749.174000	10656.705932	0.606769	19.942781
11749.175000	10656.608992	0.606466	19.949738
11749.176000	10657.711342	0.606813	19.946618
11749.177000	10658.283175	0.606644	19.949250
11749.178000	10657.521612	0.606042	19.949456
11749.179000	10657.978132	0.605815	19.944246
11749.180000	10658.402234	0.606230	19.945459
11749.181000	10658.734418	0.606873	19.944093
11749.182000	10659.318718	0.608036	19.929599
11749.183000	10659.426439	0.607673	19.940660
11749.184000	10659.186854	0.607336	19.935618
11749.185000	10659.758932	0.607546	19.931186
11749.186000	10660.547865	0.607632	19.937319
11749.187000	10660.617282	0.607404	19.930217
11749.188000	10660.869362	0.606090	19.937060
11749.189000	10660.963233	0.605455	19.942117
11749.190000	10661.360266	0.605816	19.938150
11749.191000	10661.782936	0.606716	19.934580
11749.192000	10661.684950	0.607400	19.940912
11749.193000	10662.364168	0.607469	19.941515
11749.194000	10662.814370	0.606911	19.946343
11749.195000	10662.653283	0.607043	19.943544
11749.196000	10662.978443	0.607572	19.935015
11749.197000	10663.497718	0.606794	19.943078
11749.198000	10663.819428	0.606678	19.934603
11749.199000	10663.940058	0.606319	19.929172
11749.200000	10664.334246	0.606695	19.915730
11749.201000	10664.108197	0.606550	19.934946
11749.202000	10664.794153	0.607792	19.928440
11749.203000	10665.477149	0.608129	19.926823
11749.204000	10665.577644	0.607641	19.931171
11749.205000	10666.499432	0.608231	19.928798
11749.206000	10666.705234	0.608048	19.938860
11749.207000	10666.607040	0.607371	19.943811
11749.208000	10666.626443	0.607065	19.937273
11749.209000	10666.735007	0.606316	19.942728
11749.210000	10666.981578	0.606002	19.941354
11749.211000	10667.568703	0.606179	19.947396
11749.212000	10668.093668	0.606726	19.945825
11749.213000	10668.296380	0.606786	19.947953
11749.214000	10668.213958	0.606682	19.946641
11749.215000	10668.233355	0.606895	19.944391
11749.216000	10669.480963	0.607276	19.945466
11749.217000	10669.621414	0.607785	19.924099
11749.218000	10668.960191	0.607111	19.924481
11749.219000	10670.152421	0.606255	19.927120
11749.220000	10670.154061	0.605773	19.937182
11749.221000	10670.057999	0.606727	19.934199
11749.222000	10670.895110	0.607938	19.931621
11749.223000	10671.645654	0.608038	19.928066
11749.224000	10671.794453	0.607701	19.927829
11749.225000	10672.199856	0.607784	19.936801
11749.226000	10672.488314	0.607923	19.934504
11749.227000	10672.461866	0.607331	19.934802
11749.228000	10672.675308	0.606844	19.935648
11749.229000	10673.360651	0.606298	19.941499
11749.230000	10673.613740	0.605766	19.945535
11749.231000	10673.819587	0.606653	19.929393
11749.232000	10674.454821	0.607147	19.933909
11749.233000	10674.492123	0.607403	19.936762
11749.234000	10674.970753	0.607284	19.937388
11749.235000	10675.170253	0.607386	19.927822
11749.236000	10675.209154	0.607532	19.924076
11749.237000	10675.781003	0.606600	19.942842
11749.238000	10675.748505	0.605709	19.940569
11749.239000	10675.895482	0.605355	19.926342
11749.240000	10676.152874	0.604923	19.940371
11749.241000	10676.500995	0.605985	19.926769
11749.242000	10676.703000	0.606563	19.926662
11749.243000	10677.259328	0.606844	19.930202
11749.244000	10677.959168	0.606822	19.922558
11749.245000	10678.237009	0.606960	19.923565
11749.246000	10678.165502	0.607059	19.933482
11749.247000	10679.069840	0.606950	19.932910
11749.248000	10678.654457	0.606541	19.929630
11749.249000	10679.018006	0.606168	19.933184
11749.250000	10679.055207	0.606099	19.946801
11749.251000	10679.614426	0.606155	19.949799
11749.252000	10680.155603	0.606969	19.949776
11749.253000	10679.711950	0.607514	19.937662
11749.254000	10680.608141	0.606850	19.946977
11749.255000	10681.433985	0.607008	19.951286
11749.256000	10681.309072	0.606814	19.955139
11749.257000	10681.904641	0.607289	19.938776
11749.258000	10681.391279	0.606846	19.931651
11749.259000	10681.452791	0.605733	19.933657
11749.260000	10682.284512	0.606096	19.935298
11749.261000	10682.792087	0.607045	19.937121
11749.262000	10683.111221	0.607555	19.928753
11749.263000	10683.146277	0.607613	19.918401
11749.264000	10683.244879	0.607325	19.935473
11749.265000	10683.961826	0.607907	19.928318
11749.266000	10684.040464	0.608159	19.924709
11749.267000	10684.247140	0.607544	19.922695
11749.268000	10685.214635	0.606292	19.938227
11749.269000	10684.716224	0.605903	19.944780
11749.270000	10685.475578	0.606354	19.929767
11749.271000	10685.662996	0.606994	19.935358
11749.272000	10686.106848	0.607779	19.928546
11749.273000	10686.573579	0.607675	19.942003
11749.274000	10686.487103	0.607356	19.943285
11749.275000	10686.872353	0.607247	19.943773
11749.276000	10686.860879	0.607194	19.939775
11749.277000	10687.792766	0.606960	19.935115
11749.278000	10688.096686	0.606352	19.936732
11749.279000	10688.120454	0.605751	19.938204
11749.280000	10688.035630	0.605754	19.937029
11749.281000	10688.469798	0.606624	19.938685
11749.282000	10689.124071	0.608088	19.926738
11749.283000	10689.419470	0.607694	19.932513
11749.284000	10689.730365	0.607140	19.933368
11749.285000	10690.269523	0.607186	19.924816
11749.286000	10690.634997	0.607658	19.929447
11749.287000	10690.707733	0.607311	19.929065
11749.288000	10690.270904	0.606803	19.924305
11749.289000	10690.788350	0.606152	19.922596
11749.290000	10690.982104	0.605724	19.929813
11749.291000	10691.510498	0.605874	19.927181
11749.292000	10692.021280	0.606205	19.940767
11749.293000	10692.676935	0.606616	19.936884
11749.294000	10692.944424	0.606681	19.929538
11749.295000	10692.950559	0.606488	19.945268
11749.296000	10693.249350	0.607194	19.942522
11749.297000	10693.564621	0.606939	19.942835
11749.298000	10693.600522	0.607042	19.928073
11749.299000	10694.368221	0.606287	19.929645
11749.300000	10694.298207	0.605356	19.943879
11749.301000	10694.522701	0.605965	19.938013
11749.302000	10695.424927	0.606733	19.938006
11749.303000	10695.484282	0.607235	19.936236
11749.304000	10695.521523	0.607706	19.920681
11749.305000	10695.947435	0.606823	19.937281
11749.306000	10696.107404	0.606707	19.949067
11749.307000	10696.965579	0.606764	19.930720
11749.308000	10696.641554	0.606378	19.930492
11749.309000	10696.816051	0.605727	19.927776
11749.310000	10696.844624	0.605793	19.929775
11749.311000	10697.781397	0.606637	19.930011
11749.312000	10697.966783	0.607943	19.920727
11749.313000	10698.554862	0.607641	19.934039
11749.314000	10698.500072	0.606974	19.936464
11749.315000	10698.784386	0.606894	19.936968
11749.316000	10699.657930	0.607411	19.932628
11749.317000	10699.545015	0.607110	19.939478
11749.318000	10700.375083	0.606273	19.944101
11749.319000	10700.150613	0.605536	19.952690
11749.320000	10700.745206	0.605384	19.956390
11749.321000	10700.687052	0.606703	19.937929
11749.322000	10700.991442	0.607469	19.937426
11749.323000	10702.045720	0.607154	19.946641
11749.324000	10701.683163	0.607906	19.922741
11749.325000	10701.936685	0.607331	19.930408
11749.326000	10702.156314	0.607049	19.935374
11749.327000	10702.193009	0.606741	19.930751
11749.328000	10702.658071	0.605822	19.933093
11749.329000	10702.938428	0.605757	19.924091
11749.330000	10702.824871	0.605984	19.916410
11749.331000	10703.171070	0.605813	19.931399
11749.332000	10703.217851	0.607096	19.940043
11749.333000	10704.225574	0.607924	19.927898
11749.334000	10704.909466	0.607497	19.934512
11749.335000	10704.604963	0.607688	19.932467
11749.336000	10705.130754	0.607791	19.935633
11749.337000	10705.625597	0.607357	19.944505
11749.338000	10705.745130	0.607058	19.942117
11749.339000	10706.177083	0.606526	19.949196
11749.340000	10706.586289	0.606337	19.946366
11749.341000	10706.945383	0.606560	19.944459
11749.342000	10707.746639	0.607560	19.941271
11749.343000	10707.637760	0.608228	19.940637
11749.344000	10707.833098	0.607586	19.944681
11749.345000	10707.580157	0.607539	19.941698
11749.346000	10708.251195	0.607630	19.938715
11749.347000	10708.460751	0.606959	19.945580
11749.348000	10709.177805	0.606059	19.938364
11749.349000	10709.282498	0.605508	19.925304
11749.350000	10709.089285	0.605238	19.922833
11749.351000	10709.570536	0.606307	19.912946
11749.352000	10710.155404	0.607220	19.918294
11749.353000	10710.506098	0.607499	19.920224
11749.354000	10710.551772	0.607430	19.911749
11749.355000	10711.089000	0.607079	19.923626
11749.356000	10711.064510	0.606986	19.930904
11749.357000	10710.853647	0.606477	19.945085
11749.358000	10711.500437	0.606031	19.938463
11749.359000	10711.909160	0.604999	19.946710
11749.360000	10712.424907	0.604996	19.946946
11749.361000	10712.984132	0.605816	19.943697
11749.362000	10712.944194	0.606987	19.944421
11749.363000	10713.081121	0.607034	19.946893
11749.364000	10713.338044	0.607439	19.945535
11749.365000	10713.685313	0.607384	19.951683
11749.366000	10714.132935	0.607687	19.943414
11749.367000	10714.957740	0.607338	19.936098
11749.368000	10714.648897	0.606794	19.931552
11749.369000	10714.657294	0.606023	19.934832
11749.370000	10715.043852	0.606033	19.935702
11749.371000	10715.686550	0.606949	19.920674
11749.372000	10715.917922	0.607335	19.926182
11749.373000	10716.189227	0.607685	19.930942
11749.374000	10716.807881	0.607667	19.926738
11749.375000	10717.080042	0.607516	19.927654
11749.376000	10717.452736	0.607684	19.933681
11749.377000	10717.017183	0.607778	19.933863
11749.378000	10717.733181	0.606983	19.930652
11749.379000	10718.380460	0.606263	19.928348
11749.380000	10718.359038	0.606238	19.938311
11749.381000	10718.667432	0.606676	19.938624
11749.382000	10718.773310	0.606977	19.934260
11749.383000	10719.027967	0.608096	19.922550
11749.384000	10719.831359	0.607872	19.929683
11749.385000	10720.177000	0.607156	19.948426
11749.386000	10720.655303	0.606860	19.944581
11749.387000	10720.760582	0.606538	19.941614
11749.388000	10720.634150	0.606266	19.948777
11749.389000	10720.810969	0.605997	19.939325
11749.390000	10721.289180	0.605749	19.943391
11749.391000	10721.761254	0.605773	19.954025
11749.392000	10721.878651	0.607406	19.932444
11749.393000	10722.295117	0.607512	19.926746
11749.394000	10722.761469	0.607168	19.934886
11749.395000	10722.524751	0.607375	19.931926
11749.396000	10722.983928	0.607747	19.933009
11749.397000	10723.251746	0.607544	19.921414
11749.398000	10723.146283	0.606998	19.917722
11749.399000	10723.873390	0.606007	19.929843
11749.400000	10724.277234	0.606187	19.931956
11749.401000	10724.231332	0.607093	19.926495
11749.402000	10724.386209	0.607963	19.928760
11749.403000	10725.313030	0.608444	19.925495
11749.404000	10725.504704	0.608062	19.941133
11749.405000	10726.034088	0.608171	19.941362
11749.406000	10726.706440	0.607925	19.947267
11749.407000	10726.103311	0.607380	19.948853
11749.408000	10726.796734	0.606774	19.947694
11749.409000	10727.288742	0.606806	19.941171
11749.410000	10727.655402	0.606180	19.950005
11749.411000	10727.323999	0.606417	19.958816
11749.412000	10728.003207	0.607312	19.948663
11749.413000	10728.774295	0.607248	19.949715
11749.414000	10728.557923	0.607499	19.936198
11749.415000	10728.923748	0.607310	19.931560
11749.416000	10729.509499	0.607832	19.919034
11749.417000	10729.931420	0.607117	19.925144
11749.418000	10729.810426	0.606628	19.920346
11749.419000	10729.737364	0.606279	19.918912
11749.420000	10730.313539	0.606242	19.918057
11749.421000	10731.250773	0.606993	19.914655
11749.422000	10731.204469	0.607708	19.918164
11749.423000	10731.867764	0.607614	19.925068
11749.424000	10731.841303	0.607036	19.924908
11749.425000	10731.869973	0.606846	19.929309
11749.426000	10732.114106	0.607363	19.933108
11749.427000	10732.715658	0.606822	19.932734
11749.428000	10732.770123	0.605401	19.947434
11749.429000	10732.825884	0.604683	19.946298
11749.430000	10733.043403	0.604829	19.940721
11749.431000	10733.384770	0.605416	19.935664
11749.432000	10734.102878	0.605812	19.943468
11749.433000	10734.383182	0.606505	19.948350
11749.434000	10734.533877	0.606632	19.942339
11749.435000	10734.334883	0.606611	19.936068
11749.436000	10735.037620	0.607485	19.923908
11749.437000	10735.390509	0.607405	19.930568
11749.438000	10735.727016	0.606920	19.933299
11749.439000	10735.957987	0.606083	19.942468
11749.440000	10736.150086	0.605540	19.944353
11749.441000	10736.326231	0.606410	19.935061
11749.442000	10737.222832	0.607426	19.936167
11749.443000	10736.796835	0.607824	19.939951
11749.444000	10737.593815	0.607267	19.949830
11749.445000	10738.343022	0.607641	19.942415
11749.446000	10738.692669	0.607945	19.934107
11749.447000	10738.478228	0.607552	19.935793
11749.448000	10739.186463	0.606985	19.934916
11749.449000	10739.037853	0.606693	19.928424
11749.450000	10739.223750	0.606850	19.921338
11749.451000	10740.170398	0.607237	19.924717
11749.452000	10740.403179	0.607463	19.926815
11749.453000	10740.509493	0.607565	19.921338
11749.454000	10740.938840	0.607347	19.919888
11749.455000	10741.203499	0.606874	19.936091
11749.456000	10740.882910	0.607141	19.934550
11749.457000	10741.411252	0.606615	19.937754
11749.458000	10741.457985	0.605423	19.948769
11749.459000	10742.146247	0.605254	19.936274
11749.460000	10742.194487	0.605244	19.935976
11749.461000	10742.592768	0.605386	19.947587
11749.462000	10743.313956	0.606765	19.940927
11749.463000	10743.327544	0.607249	19.932178
11749.464000	10743.702325	0.607194	19.929622
11749.465000	10744.355266	0.607392	19.927631
11749.466000	10744.450103	0.607180	19.936640
11749.467000	10744.154043	0.607326	19.934367
11749.468000	10744.529858	0.606699	19.933703
11749.469000	10744.970623	0.606721	19.925144
11749.470000	10745.128152	0.606502	19.916173
11749.471000	10745.062788	0.606289	19.925823
11749.472000	10746.094318	0.606777	19.935870
11749.473000	10746.449484	0.607038	19.942117
11749.474000	10746.474794	0.607058	19.934863
11749.475000	10746.985676	0.607448	19.930545
11749.476000	10747.180219	0.607836	19.930446
11749.477000	10748.247404	0.607448	19.938616
11749.478000	10747.870454	0.606967	19.939013
11749.479000	10747.955736	0.606608	19.941705
11749.480000	10748.442283	0.606546	19.933032
11749.481000	10749.246732	0.607008	19.938013
11749.482000	10749.456000	0.607584	19.948746
11749.483000	10749.332032	0.607548	19.942979
11749.484000	10749.791890	0.607201	19.937571
11749.485000	10749.857935	0.606897	19.941553
11749.486000	10750.346204	0.607411	19.942407
11749.487000	10750.556671	0.606909	19.943765
11749.488000	10751.146231	0.605937	19.937678
11749.489000	10750.939462	0.605430	19.929859
11749.490000	10751.241396	0.605437	19.927181
11749.491000	10751.589923	0.605704	19.927097
11749.492000	10751.889467	0.606449	19.929180
11749.493000	10752.210356	0.607353	19.930835
11749.494000	10752.805575	0.607392	19.920033
11749.495000	10752.311481	0.606957	19.927906
11749.496000	10753.063487	0.607047	19.931407
11749.497000	10753.678221	0.607034	19.930972
11749.498000	10753.002753	0.606434	19.937487
11749.499000	10753.854313	0.606113	19.937807
11749.500000	10753.977733	0.605976	19.931171
11749.501000	10754.393426	0.606589	19.936045
11749.502000	10754.855634	0.607494	19.938975
11749.503000	10755.049443	0.607698	19.943780
11749.504000	10755.683051	0.607469	19.952485
11749.505000	10755.991444	0.607860	19.940447
11749.506000	10755.999200	0.608062	19.942888
11749.507000	10756.657915	0.607628	19.950829
11749.508000	10757.062843	0.607086	19.945833
11749.509000	10757.062438	0.606842	19.940630
11749.510000	10756.948194	0.606911	19.933505
11749.511000	10757.954646	0.607645	19.920148
11749.512000	10757.911042	0.608043	19.923756
11749.513000	10757.939365	0.607786	19.939455
11749.514000	10759.089915	0.607942	19.927135
11749.515000	10759.421311	0.607593	19.928447
11749.516000	10759.402991	0.607211	19.937182
11749.517000	10759.749730	0.607619	19.929393
11749.518000	10760.082976	0.606631	19.939852
11749.519000	10760.507563	0.606114	19.935183
11749.520000	10760.509527	0.606432	19.926746
11749.521000	10760.768360	0.606486	19.934992
11749.522000	10760.816323	0.606537	19.948739
11749.523000	10761.334724	0.607358	19.930987
11749.524000	10762.248058	0.607276	19.925571
11749.525000	10761.867344	0.606936	19.931140
11749.526000	10762.158294	0.607147	19.924717
11749.527000	10762.333776	0.606532	19.931758
11749.528000	10762.073389	0.606501	19.926036
11749.529000	10762.916278	0.605981	19.932223
11749.530000	10763.177043	0.605624	19.923184
11749.531000	10763.363755	0.606299	19.930507
11749.532000	10763.947862	0.606820	19.934199
11749.533000	10764.353287	0.607497	19.932597
11749.534000	10764.340920	0.607368	19.936511
11749.535000	10764.426805	0.607565	19.943033
11749.536000	10765.809728	0.607983	19.942255
11749.537000	10765.665928	0.607723	19.934313
11749.538000	10765.667786	0.606887	19.944459
11749.539000	10766.018111	0.606177	19.950745
11749.540000	10765.870694	0.606417	19.942537
11749.541000	10766.367370	0.606901	19.946191
11749.542000	10767.028749	0.607903	19.940386
11749.543000	10767.366701	0.607935	19.941339
11749.544000	10767.397465	0.607116	19.946023
11749.545000	10768.162518	0.607334	19.941324
11749.546000	10768.308175	0.607923	19.934558
11749.547000	10768.505043	0.607625	19.938936
11749.548000	10769.038638	0.606859	19.936495
11749.549000	10769.220125	0.606276	19.935038
11749.550000	10769.180794	0.606169	19.936243
11749.551000	10770.214507	0.607428	19.926326
11749.552000	10770.064861	0.607852	19.925625
11749.553000	10770.551194	0.608117	19.922261
11749.554000	10771.059301	0.607732	19.927387
11749.555000	10771.181185	0.607493	19.931804
11749.556000	10771.486371	0.607589	19.924587
11749.557000	10771.750388	0.607344	19.923664
11749.558000	10771.758117	0.606802	19.923229
11749.559000	10772.415842	0.605908	19.928890
11749.560000	10772.371552	0.605782	19.934176
11749.561000	10772.640178	0.606301	19.936190
11749.562000	10772.916005	0.606797	19.938837
11749.563000	10773.074896	0.607282	19.927936
11749.564000	10773.478710	0.606955	19.929324
11749.565000	10773.600648	0.606624	19.942232
11749.566000	10774.106966	0.606406	19.949731
11749.567000	10774.680894	0.606450	19.939379
11749.568000	10774.680321	0.606490	19.933878
11749.569000	10774.671721	0.606065	19.942186
11749.570000	10775.254828	0.605507	19.940576
11749.571000	10775.498921	0.606168	19.936221
11749.572000	10776.038532	0.607324	19.930217
11749.573000	10775.602492	0.607867	19.937228
11749.574000	10776.271510	0.607153	19.952736
11749.575000	10776.715987	0.607469	19.938624
11749.576000	10776.972796	0.608138	19.928203
11749.577000	10776.671457	0.607883	19.925823
11749.578000	10777.589879	0.606967	19.934329
11749.579000	10777.806979	0.606325	19.939455
11749.580000	10778.083078	0.606847	19.934199
